%OpenBCI Raw EEG Data
%Number of channels = 8
%Sample Rate = 250.0 Hz
%First Column = SampleIndex
%Last Column = Timestamp 
%Other Columns = EEG data in microvolts followed by Accel Data (in G) interleaved with Aux Data
0, 14311.58, 12653.12, 18733.51, 14724.01, 21839.31, 22739.21, 21264.44, 15267.34, 0.006, 0.022, -0.514, 13:07:32.500, 1560506852500
1, 14233.05, 12549.90, 18641.27, 14648.66, 21778.71, 22681.48, 21192.11, 15203.46, 0.000, 0.000, 0.000, 13:07:32.985, 1560506852985
2, 14063.23, 12375.74, 18461.11, 14482.99, 21622.81, 22535.50, 21027.25, 15051.11, 0.000, 0.000, 0.000, 13:07:32.985, 1560506852985
3, 14089.69, 12377.37, 18479.51, 14497.77, 21623.14, 22531.07, 21024.18, 15047.28, 0.000, 0.000, 0.000, 13:07:32.985, 1560506852985
4, 14287.57, 12578.58, 18691.00, 14694.95, 21811.03, 22708.70, 21215.67, 15234.46, 0.000, 0.000, 0.000, 13:07:32.985, 1560506852985
5, 14292.76, 12612.17, 18730.27, 14735.61, 21860.25, 22755.46, 21264.87, 15284.61, 0.000, 0.000, 0.000, 13:07:32.985, 1560506852985
6, 14191.21, 12523.30, 18629.75, 14650.29, 21784.77, 22681.25, 21183.51, 15208.22, 0.000, 0.000, 0.000, 13:07:32.985, 1560506852985
7, 14025.07, 12370.04, 18459.12, 14467.30, 21622.59, 22526.33, 21023.92, 15055.44, 0.008, 0.040, -0.774, 13:07:32.985, 1560506852985
8, 14068.63, 12405.26, 18501.34, 14483.17, 21626.23, 22531.18, 21039.54, 15067.58, 0.000, 0.000, 0.000, 13:07:32.985, 1560506852985
9, 14285.87, 12590.49, 18688.58, 14685.54, 21815.28, 22709.19, 21232.50, 15250.91, 0.000, 0.000, 0.000, 13:07:32.985, 1560506852985
10, 14300.62, 12598.29, 18715.58, 14729.15, 21855.89, 22752.73, 21267.97, 15287.39, 0.000, 0.000, 0.000, 13:07:32.986, 1560506852986
11, 14189.58, 12505.00, 18628.44, 14643.21, 21779.05, 22679.96, 21187.33, 15212.84, 0.000, 0.000, 0.000, 13:07:32.986, 1560506852986
12, 14015.39, 12342.14, 18455.95, 14471.37, 21616.73, 22521.48, 21019.42, 15052.42, 0.000, 0.000, 0.000, 13:07:32.986, 1560506852986
13, 14053.64, 12362.86, 18482.84, 14484.20, 21615.59, 22517.33, 21024.23, 15051.37, 0.000, 0.000, 0.000, 13:07:32.986, 1560506852986
14, 14254.29, 12563.38, 18683.71, 14680.47, 21791.21, 22689.37, 21206.20, 15225.36, 0.000, 0.000, 0.000, 13:07:32.986, 1560506852986
15, 14292.13, 12599.70, 18714.58, 14723.67, 21832.78, 22733.98, 21244.21, 15265.41, 0.000, 0.000, 0.000, 13:07:32.986, 1560506852986
16, 14196.87, 12526.23, 18623.94, 14653.42, 21769.79, 22675.38, 21177.25, 15204.19, 0.006, 0.046, -0.908, 13:07:32.986, 1560506852986
17, 14026.90, 12364.43, 18447.77, 14469.31, 21604.30, 22512.25, 21002.50, 15036.02, 0.000, 0.000, 0.000, 13:07:32.986, 1560506852986
18, 14046.75, 12385.57, 18472.64, 14471.21, 21605.38, 22506.15, 21005.77, 15031.93, 0.000, 0.000, 0.000, 13:07:32.986, 1560506852986
19, 14252.54, 12568.03, 18703.38, 14679.64, 21792.71, 22689.37, 21201.05, 15217.83, 0.000, 0.000, 0.000, 13:07:32.986, 1560506852986
20, 14293.92, 12601.67, 18719.81, 14721.75, 21841.52, 22738.45, 21242.65, 15261.41, 0.000, 0.000, 0.000, 13:07:32.986, 1560506852986
21, 14209.32, 12527.12, 18623.99, 14642.27, 21774.82, 22676.25, 21164.33, 15190.25, 0.000, 0.000, 0.000, 13:07:32.986, 1560506852986
22, 14022.50, 12336.40, 18445.08, 14471.17, 21611.97, 22516.59, 20989.79, 15025.04, 0.000, 0.000, 0.000, 13:07:32.986, 1560506852986
23, 14022.19, 12353.41, 18469.27, 14481.34, 21615.68, 22517.17, 20993.14, 15025.87, 0.000, 0.000, 0.000, 13:07:32.987, 1560506852987
24, 14217.09, 12547.06, 18670.50, 14673.16, 21793.69, 22686.19, 21172.67, 15197.93, 0.000, 0.000, 0.000, 13:07:32.987, 1560506852987
25, 14274.18, 12591.63, 18715.85, 14718.02, 21846.59, 22738.65, 21228.08, 15257.70, 0.000, 0.000, 0.000, 13:07:32.987, 1560506852987
26, 14182.43, 12499.07, 18619.52, 14622.94, 21763.80, 22663.57, 21144.88, 15179.25, 0.012, 0.058, -0.972, 13:07:32.987, 1560506852987
27, 13986.89, 12323.81, 18431.83, 14450.33, 21600.86, 22512.14, 20976.98, 15021.33, 0.000, 0.000, 0.000, 13:07:32.987, 1560506852987
28, 14023.24, 12347.51, 18460.80, 14463.61, 21600.81, 22512.18, 20984.40, 15029.33, 0.000, 0.000, 0.000, 13:07:32.987, 1560506852987
29, 14211.64, 12535.33, 18647.17, 14654.09, 21770.13, 22674.03, 21174.95, 15206.03, 0.000, 0.000, 0.000, 13:07:32.987, 1560506852987
30, 14237.70, 12560.07, 18685.57, 14700.61, 21821.22, 22723.81, 21227.18, 15256.92, 0.000, 0.000, 0.000, 13:07:32.987, 1560506852987
31, 14184.44, 12485.66, 18633.04, 14643.52, 21767.49, 22672.31, 21165.83, 15199.66, 0.000, 0.000, 0.000, 13:07:32.987, 1560506852987
32, 14012.17, 12326.27, 18459.61, 14473.33, 21607.81, 22516.68, 20994.12, 15035.59, 0.000, 0.000, 0.000, 13:07:32.987, 1560506852987
33, 14009.69, 12352.58, 18465.42, 14468.51, 21596.21, 22501.34, 20980.93, 15019.43, 0.000, 0.000, 0.000, 13:07:32.987, 1560506852987
34, 14207.19, 12541.54, 18645.13, 14653.20, 21761.17, 22660.13, 21157.80, 15186.65, 0.000, 0.000, 0.000, 13:07:32.987, 1560506852987
35, 14258.74, 12567.51, 18686.19, 14692.32, 21810.59, 22712.32, 21209.05, 15241.16, 0.000, 0.000, 0.000, 13:07:32.987, 1560506852987
36, 14173.96, 12488.05, 18611.78, 14612.65, 21744.69, 22653.22, 21140.21, 15178.04, 0.012, 0.058, -1.002, 13:07:32.988, 1560506852988
37, 14008.84, 12313.75, 18421.55, 14445.91, 21582.87, 22496.34, 20966.92, 15015.59, 0.000, 0.000, 0.000, 13:07:32.988, 1560506852988
38, 14035.24, 12335.48, 18448.06, 14457.69, 21582.98, 22492.80, 20970.63, 15015.28, 0.000, 0.000, 0.000, 13:07:32.988, 1560506852988
39, 14210.88, 12506.00, 18659.35, 14648.89, 21767.34, 22668.49, 21159.90, 15192.55, 0.000, 0.000, 0.000, 13:07:32.988, 1560506852988
40, 14228.63, 12551.13, 18706.60, 14711.00, 21826.01, 22723.99, 21209.66, 15242.91, 0.000, 0.000, 0.000, 13:07:32.988, 1560506852988
41, 14152.61, 12481.97, 18614.29, 14644.86, 21766.53, 22667.15, 21137.22, 15178.49, 0.000, 0.000, 0.000, 13:07:32.988, 1560506852988
42, 13985.51, 12310.09, 18432.39, 14468.22, 21597.80, 22502.60, 20957.67, 15005.08, 0.000, 0.000, 0.000, 13:07:32.988, 1560506852988
43, 13995.68, 12331.52, 18464.35, 14452.19, 21587.76, 22488.18, 20954.31, 14992.21, 0.000, 0.000, 0.000, 13:07:32.988, 1560506852988
44, 14182.67, 12507.52, 18642.90, 14647.95, 21768.32, 22662.86, 21142.98, 15170.15, 0.000, 0.000, 0.000, 13:07:32.988, 1560506852988
45, 14229.81, 12540.38, 18684.83, 14688.87, 21825.05, 22721.62, 21198.33, 15229.29, 0.000, 0.000, 0.000, 13:07:32.988, 1560506852988
46, 14174.96, 12472.34, 18615.63, 14619.36, 21767.98, 22669.00, 21133.08, 15174.98, 0.008, 0.058, -1.016, 13:07:32.988, 1560506852988
47, 13994.40, 12294.55, 18425.75, 14449.98, 21606.63, 22512.77, 20967.14, 15016.39, 0.000, 0.000, 0.000, 13:07:32.988, 1560506852988
48, 13986.47, 12291.87, 18442.00, 14445.40, 21592.37, 22496.87, 20963.57, 15008.82, 0.000, 0.000, 0.000, 13:07:32.988, 1560506852988
49, 14177.11, 12485.21, 18634.67, 14639.10, 21766.96, 22665.58, 21147.05, 15184.52, 0.000, 0.000, 0.000, 13:07:32.989, 1560506852989
50, 14206.90, 12529.45, 18678.46, 14690.71, 21817.65, 22721.02, 21197.68, 15240.13, 0.000, 0.000, 0.000, 13:07:32.989, 1560506852989
51, 14131.96, 12471.56, 18607.67, 14629.82, 21751.60, 22659.06, 21126.20, 15176.86, 0.000, 0.000, 0.000, 13:07:32.989, 1560506852989
52, 13967.58, 12306.69, 18417.41, 14462.41, 21584.81, 22498.04, 20951.50, 15012.30, 0.000, 0.000, 0.000, 13:07:32.989, 1560506852989
53, 13984.30, 12302.33, 18427.02, 14440.75, 21569.97, 22482.63, 20938.76, 14998.31, 0.000, 0.000, 0.000, 13:07:32.989, 1560506852989
54, 14196.96, 12495.38, 18641.11, 14638.20, 21756.61, 22660.82, 21126.78, 15178.87, 0.000, 0.000, 0.000, 13:07:32.989, 1560506852989
55, 14213.67, 12525.92, 18671.44, 14679.44, 21813.31, 22711.41, 21179.24, 15227.86, 0.000, 0.000, 0.000, 13:07:32.989, 1560506852989
56, 14133.10, 12438.21, 18608.99, 14609.28, 21759.27, 22658.77, 21121.48, 15173.73, 0.012, 0.058, -1.022, 13:07:32.989, 1560506852989
57, 13964.50, 12265.94, 18428.99, 14442.98, 21596.75, 22504.27, 20948.34, 15012.35, 0.000, 0.000, 0.000, 13:07:32.989, 1560506852989
58, 13958.73, 12263.37, 18434.47, 14435.43, 21576.61, 22484.13, 20933.46, 14997.64, 0.000, 0.000, 0.000, 13:07:32.990, 1560506852990
59, 14157.77, 12463.35, 18649.54, 14634.76, 21754.13, 22654.97, 21127.43, 15180.48, 0.000, 0.000, 0.000, 13:07:32.991, 1560506852991
60, 14205.83, 12518.12, 18669.47, 14690.77, 21807.50, 22707.74, 21178.97, 15233.18, 0.000, 0.000, 0.000, 13:07:32.991, 1560506852991
61, 14133.28, 12460.52, 18591.13, 14629.26, 21745.03, 22648.22, 21109.01, 15170.20, 0.000, 0.000, 0.000, 13:07:32.991, 1560506852991
62, 13965.46, 12279.62, 18415.74, 14447.79, 21586.40, 22492.09, 20935.94, 15007.90, 0.000, 0.000, 0.000, 13:07:32.991, 1560506852991
63, 13953.95, 12284.43, 18422.29, 14423.49, 21573.41, 22469.00, 20927.20, 14992.39, 0.000, 0.000, 0.000, 13:07:32.991, 1560506852991
64, 14154.44, 12476.41, 18631.99, 14615.42, 21756.88, 22644.73, 21121.75, 15172.10, 0.000, 0.000, 0.000, 13:07:32.991, 1560506852991
65, 14202.57, 12503.81, 18669.38, 14665.52, 21824.94, 22705.93, 21177.49, 15226.19, 0.000, 0.000, 0.000, 13:07:32.991, 1560506852991
66, 14117.72, 12422.85, 18593.25, 14601.92, 21759.27, 22641.62, 21107.24, 15158.57, 0.014, 0.060, -1.036, 13:07:32.991, 1560506852991
67, 13940.25, 12252.33, 18412.94, 14432.83, 21592.48, 22483.24, 20938.53, 14997.60, 0.000, 0.000, 0.000, 13:07:32.991, 1560506852991
68, 13958.40, 12252.96, 18419.56, 14413.99, 21566.88, 22465.71, 20914.21, 14976.07, 0.000, 0.000, 0.000, 13:07:32.991, 1560506852991
69, 14138.10, 12451.46, 18608.10, 14612.32, 21747.49, 22642.05, 21109.66, 15158.33, 0.000, 0.000, 0.000, 13:07:32.992, 1560506852992
70, 14187.39, 12508.57, 18665.63, 14676.78, 21801.73, 22701.12, 21169.89, 15221.63, 0.000, 0.000, 0.000, 13:07:32.992, 1560506852992
71, 14138.89, 12455.78, 18621.55, 14621.08, 21748.02, 22658.59, 21110.22, 15174.29, 0.000, 0.000, 0.000, 13:07:32.992, 1560506852992
72, 13952.54, 12286.60, 18424.70, 14448.41, 21590.00, 22507.29, 20943.76, 15018.23, 0.000, 0.000, 0.000, 13:07:32.992, 1560506852992
73, 13938.46, 12269.12, 18410.10, 14426.67, 21558.23, 22474.99, 20913.52, 14988.65, 0.000, 0.000, 0.000, 13:07:32.992, 1560506852992
74, 14139.62, 12446.48, 18626.27, 14616.25, 21734.81, 22643.75, 21093.34, 15159.98, 0.000, 0.000, 0.000, 13:07:32.992, 1560506852992
75, 14182.52, 12478.38, 18664.80, 14673.14, 21798.09, 22700.86, 21148.95, 15216.96, 0.000, 0.000, 0.000, 13:07:32.992, 1560506852992
76, 14111.75, 12407.12, 18582.21, 14600.58, 21741.23, 22642.67, 21085.07, 15159.47, 0.012, 0.062, -1.034, 13:07:32.992, 1560506852992
77, 13945.54, 12245.80, 18405.77, 14425.01, 21581.14, 22490.35, 20923.31, 15004.41, 0.000, 0.000, 0.000, 13:07:32.992, 1560506852992
78, 13925.20, 12251.64, 18397.03, 14399.75, 21547.93, 22457.11, 20898.90, 14975.49, 0.000, 0.000, 0.000, 13:07:32.992, 1560506852992
79, 14112.96, 12454.79, 18604.68, 14610.51, 21723.30, 22624.30, 21080.96, 15148.54, 0.000, 0.000, 0.000, 13:07:32.992, 1560506852992
80, 14191.75, 12514.72, 18673.07, 14686.12, 21796.55, 22694.04, 21151.23, 15217.13, 0.000, 0.000, 0.000, 13:07:32.992, 1560506852992
81, 14128.07, 12445.29, 18593.39, 14603.53, 21739.71, 22637.47, 21085.12, 15156.78, 0.000, 0.000, 0.000, 13:07:32.993, 1560506852993
82, 13925.49, 12245.02, 18405.32, 14417.90, 21582.33, 22480.00, 20917.05, 14993.91, 0.000, 0.000, 0.000, 13:07:32.993, 1560506852993
83, 13918.92, 12213.31, 18403.29, 14410.42, 21556.16, 22454.74, 20896.15, 14968.65, 0.000, 0.000, 0.000, 13:07:32.993, 1560506852993
84, 14112.65, 12417.85, 18608.36, 14602.64, 21721.42, 22618.49, 21070.03, 15135.08, 0.000, 0.000, 0.000, 13:07:32.993, 1560506852993
85, 14163.14, 12471.65, 18645.80, 14658.07, 21779.94, 22678.39, 21121.53, 15190.60, 0.000, 0.000, 0.000, 13:07:32.993, 1560506852993
86, 14081.91, 12392.95, 18567.77, 14580.33, 21718.92, 22618.31, 21054.07, 15129.63, 0.008, 0.056, -1.030, 13:07:32.993, 1560506852993
87, 13905.15, 12240.89, 18390.63, 14409.63, 21563.91, 22466.52, 20906.50, 14985.35, 0.000, 0.000, 0.000, 13:07:32.993, 1560506852993
88, 13890.58, 12226.99, 18363.57, 14382.23, 21524.91, 22430.51, 20870.74, 14949.85, 0.000, 0.000, 0.000, 13:07:32.993, 1560506852993
89, 14082.94, 12403.12, 18560.42, 14571.08, 21696.08, 22595.13, 21045.73, 15118.07, 0.000, 0.000, 0.000, 13:07:32.993, 1560506852993
90, 14135.80, 12441.32, 18631.65, 14633.82, 21758.66, 22659.84, 21103.20, 15179.16, 0.000, 0.000, 0.000, 13:07:32.993, 1560506852993
91, 14059.45, 12361.43, 18556.48, 14568.84, 21689.95, 22596.03, 21027.43, 15110.92, 0.000, 0.000, 0.000, 13:07:32.993, 1560506852993
92, 13892.01, 12204.70, 18364.73, 14397.03, 21525.22, 22439.83, 20856.66, 14948.71, 0.000, 0.000, 0.000, 13:07:32.993, 1560506852993
93, 13876.12, 12191.00, 18355.07, 14360.41, 21488.88, 22404.92, 20824.72, 14916.39, 0.000, 0.000, 0.000, 13:07:32.993, 1560506852993
94, 14070.24, 12379.31, 18562.43, 14547.05, 21673.77, 22575.82, 21009.19, 15093.15, 0.000, 0.000, 0.000, 13:07:32.994, 1560506852994
95, 14135.31, 12448.00, 18614.64, 14615.29, 21749.34, 22648.53, 21080.80, 15165.14, 0.000, 0.000, 0.000, 13:07:32.994, 1560506852994
96, 14051.11, 12366.19, 18533.19, 14554.67, 21688.43, 22592.65, 21018.82, 15108.46, 0.010, 0.052, -1.032, 13:07:32.994, 1560506852994
97, 13862.73, 12178.82, 18357.62, 14391.42, 21531.64, 22444.41, 20860.17, 14958.70, 0.000, 0.000, 0.000, 13:07:32.994, 1560506852994
98, 13868.27, 12168.09, 18362.27, 14370.14, 21506.13, 22415.47, 20841.64, 14934.63, 0.000, 0.000, 0.000, 13:07:32.994, 1560506852994
99, 14068.30, 12368.47, 18571.33, 14559.39, 21689.95, 22584.89, 21029.17, 15110.54, 0.000, 0.000, 0.000, 13:07:32.995, 1560506852995
100, 14106.34, 12417.18, 18628.88, 14611.38, 21750.86, 22641.06, 21087.82, 15168.41, 0.000, 0.000, 0.000, 13:07:32.995, 1560506852995
101, 14025.54, 12350.84, 18525.33, 14532.52, 21681.64, 22568.47, 21013.03, 15096.39, 0.000, 0.000, 0.000, 13:07:32.995, 1560506852995
102, 13855.53, 12170.19, 18321.86, 14355.30, 21515.63, 22407.13, 20838.75, 14927.79, 0.000, 0.000, 0.000, 13:07:32.995, 1560506852995
103, 13850.06, 12146.29, 18319.45, 14333.03, 21487.80, 22384.20, 20812.96, 14897.30, 0.000, 0.000, 0.000, 13:07:32.995, 1560506852995
104, 14015.71, 12341.94, 18524.52, 14520.65, 21658.30, 22549.18, 20989.61, 15061.12, 0.000, 0.000, 0.000, 13:07:32.995, 1560506852995
105, 14075.94, 12400.41, 18600.38, 14597.95, 21734.68, 22627.03, 21067.39, 15139.04, 0.000, 0.000, 0.000, 13:07:32.995, 1560506852995
106, 14035.20, 12351.15, 18536.50, 14550.29, 21695.72, 22593.77, 21018.60, 15100.73, 0.014, 0.052, -1.036, 13:07:32.995, 1560506852995
107, 13844.96, 12165.12, 18341.39, 14364.62, 21524.04, 22429.15, 20843.25, 14935.77, 0.000, 0.000, 0.000, 13:07:32.995, 1560506852995
108, 13824.87, 12128.12, 18326.11, 14329.28, 21479.82, 22384.94, 20805.70, 14899.63, 0.000, 0.000, 0.000, 13:07:32.996, 1560506852996
109, 14040.92, 12320.88, 18525.15, 14519.36, 21647.62, 22554.38, 20984.31, 15071.24, 0.000, 0.000, 0.000, 13:07:32.996, 1560506852996
110, 14085.42, 12370.82, 18578.05, 14576.24, 21702.65, 22610.11, 21038.49, 15127.84, 0.000, 0.000, 0.000, 13:07:32.996, 1560506852996
111, 13986.58, 12299.96, 18490.84, 14513.12, 21644.13, 22552.39, 20972.24, 15071.04, 0.000, 0.000, 0.000, 13:07:32.996, 1560506852996
112, 13801.08, 12139.50, 18298.95, 14348.03, 21485.93, 22402.64, 20810.50, 14920.15, 0.000, 0.000, 0.000, 13:07:32.997, 1560506852997
113, 13788.37, 12136.73, 18307.04, 14301.79, 21451.26, 22363.21, 20780.68, 14886.82, 0.000, 0.000, 0.000, 13:07:32.997, 1560506852997
114, 13997.29, 12326.29, 18507.04, 14499.31, 21639.62, 22534.02, 20967.52, 15063.13, 0.000, 0.000, 0.000, 13:07:32.997, 1560506852997
115, 14054.29, 12370.37, 18564.33, 14582.08, 21714.36, 22612.34, 21036.41, 15132.04, 0.000, 0.000, 0.000, 13:07:32.997, 1560506852997
116, 13986.07, 12283.42, 18486.59, 14515.09, 21655.22, 22557.83, 20969.49, 15070.15, 0.014, 0.046, -1.036, 13:07:32.997, 1560506852997
117, 13810.52, 12102.28, 18313.05, 14342.02, 21495.63, 22405.59, 20806.84, 14912.52, 0.000, 0.000, 0.000, 13:07:32.997, 1560506852997
118, 13788.12, 12086.57, 18286.16, 14305.61, 21454.50, 22363.17, 20771.23, 14871.80, 0.000, 0.000, 0.000, 13:07:32.997, 1560506852997
119, 13991.43, 12296.10, 18501.66, 14486.63, 21629.92, 22527.83, 20954.85, 15044.36, 0.000, 0.000, 0.000, 13:07:32.997, 1560506852997
120, 14056.74, 12363.71, 18584.27, 14561.02, 21705.73, 22599.27, 21028.10, 15116.89, 0.000, 0.000, 0.000, 13:07:32.998, 1560506852998
121, 13953.05, 12283.45, 18481.07, 14481.94, 21634.86, 22533.13, 20953.29, 15046.86, 0.000, 0.000, 0.000, 13:07:33.463, 1560506853463
122, 13766.26, 12101.77, 18281.85, 14304.78, 21467.93, 22374.07, 20780.91, 14883.56, 0.000, 0.000, 0.000, 13:07:33.463, 1560506853463
123, 13752.56, 12063.82, 18265.98, 14277.94, 21431.21, 22334.78, 20746.06, 14843.84, 0.000, 0.000, 0.000, 13:07:33.463, 1560506853463
124, 13961.97, 12265.52, 18480.62, 14479.44, 21617.49, 22512.99, 20935.52, 15021.53, 0.000, 0.000, 0.000, 13:07:33.463, 1560506853463
125, 14022.95, 12323.99, 18536.10, 14553.04, 21687.76, 22585.95, 21002.68, 15088.10, 0.014, 0.050, -1.034, 13:07:33.463, 1560506853463
126, 13952.36, 12268.02, 18464.19, 14488.60, 21627.37, 22531.36, 20941.37, 15030.39, 0.000, 0.000, 0.000, 13:07:33.464, 1560506853464
127, 13792.55, 12106.33, 18287.44, 14333.30, 21471.51, 22382.57, 20780.26, 14874.64, 0.000, 0.000, 0.000, 13:07:33.464, 1560506853464
128, 13775.63, 12070.25, 18265.29, 14293.18, 21430.49, 22338.33, 20738.35, 14832.97, 0.000, 0.000, 0.000, 13:07:33.464, 1560506853464
129, 13952.47, 12256.44, 18457.06, 14457.55, 21590.18, 22490.86, 20903.69, 14992.28, 0.000, 0.000, 0.000, 13:07:33.464, 1560506853464
130, 14031.96, 12351.26, 18549.44, 14549.64, 21672.23, 22575.42, 20989.99, 15081.46, 0.000, 0.000, 0.000, 13:07:33.464, 1560506853464
131, 13976.17, 12281.95, 18491.02, 14492.87, 21621.11, 22526.74, 20935.34, 15033.51, 0.000, 0.000, 0.000, 13:07:33.464, 1560506853464
132, 13771.45, 12082.08, 18289.63, 14308.54, 21460.38, 22368.04, 20762.11, 14869.30, 0.000, 0.000, 0.000, 13:07:33.464, 1560506853464
133, 13724.66, 12040.55, 18252.03, 14258.92, 21412.66, 22321.37, 20715.69, 14824.41, 0.000, 0.000, 0.000, 13:07:33.464, 1560506853464
134, 13922.16, 12242.00, 18446.13, 14457.73, 21594.71, 22491.22, 20904.36, 15002.45, 0.000, 0.000, 0.000, 13:07:33.464, 1560506853464
135, 13995.05, 12311.99, 18524.30, 14537.15, 21675.07, 22569.29, 20978.30, 15078.24, 0.016, 0.054, -1.034, 13:07:33.464, 1560506853464
136, 13934.39, 12250.81, 18461.49, 14484.71, 21624.80, 22521.73, 20920.40, 15028.66, 0.000, 0.000, 0.000, 13:07:33.464, 1560506853464
137, 13754.88, 12076.85, 18275.63, 14310.88, 21461.63, 22361.00, 20752.41, 14867.78, 0.000, 0.000, 0.000, 13:07:33.465, 1560506853465
138, 13724.66, 12041.60, 18244.25, 14257.98, 21414.76, 22311.46, 20711.60, 14824.26, 0.000, 0.000, 0.000, 13:07:33.465, 1560506853465
139, 13946.84, 12246.10, 18445.69, 14448.57, 21594.53, 22484.13, 20896.06, 15000.55, 0.000, 0.000, 0.000, 13:07:33.465, 1560506853465
140, 14024.02, 12330.03, 18534.54, 14528.95, 21673.10, 22569.40, 20980.04, 15086.51, 0.000, 0.000, 0.000, 13:07:33.466, 1560506853466
141, 13955.33, 12253.07, 18485.25, 14481.47, 21624.82, 22528.84, 20931.42, 15043.01, 0.000, 0.000, 0.000, 13:07:33.466, 1560506853466
142, 13759.26, 12068.40, 18287.84, 14310.28, 21464.89, 22371.48, 20765.24, 14881.23, 0.000, 0.000, 0.000, 13:07:33.466, 1560506853466
143, 13711.12, 12040.35, 18236.34, 14264.21, 21414.09, 22317.19, 20709.96, 14822.29, 0.000, 0.000, 0.000, 13:07:33.466, 1560506853466
144, 13897.71, 12233.44, 18443.23, 14455.90, 21589.64, 22484.20, 20887.39, 14988.34, 0.000, 0.000, 0.000, 13:07:33.466, 1560506853466
145, 13980.34, 12301.19, 18513.44, 14533.37, 21670.35, 22565.76, 20965.33, 15065.70, 0.016, 0.050, -1.034, 13:07:33.466, 1560506853466
146, 13935.73, 12251.75, 18462.63, 14482.50, 21615.54, 22518.80, 20909.97, 15013.91, 0.000, 0.000, 0.000, 13:07:33.466, 1560506853466
147, 13767.74, 12080.58, 18276.08, 14320.36, 21461.09, 22371.01, 20751.94, 14862.41, 0.000, 0.000, 0.000, 13:07:33.466, 1560506853466
148, 13712.86, 12025.22, 18245.26, 14273.67, 21414.20, 22324.34, 20708.78, 14818.29, 0.000, 0.000, 0.000, 13:07:33.469, 1560506853469
149, 13906.03, 12225.71, 18454.22, 14455.90, 21586.49, 22488.69, 20889.31, 14988.95, 0.000, 0.000, 0.000, 13:07:33.469, 1560506853469
150, 13990.25, 12304.37, 18515.60, 14526.87, 21661.03, 22561.04, 20964.15, 15063.82, 0.000, 0.000, 0.000, 13:07:33.469, 1560506853469
151, 13914.43, 12228.59, 18465.42, 14465.62, 21603.99, 22510.13, 20902.88, 15010.04, 0.000, 0.000, 0.000, 13:07:33.469, 1560506853469
152, 13757.68, 12056.28, 18294.63, 14307.66, 21454.41, 22369.80, 20752.63, 14867.96, 0.000, 0.000, 0.000, 13:07:33.469, 1560506853469
153, 13713.78, 12013.50, 18236.77, 14253.77, 21400.48, 22315.11, 20700.80, 14814.87, 0.000, 0.000, 0.000, 13:07:33.469, 1560506853469
154, 13895.88, 12229.96, 18434.18, 14449.20, 21582.51, 22487.64, 20880.93, 14989.62, 0.000, 0.000, 0.000, 13:07:33.469, 1560506853469
155, 13966.93, 12292.99, 18502.64, 14520.32, 21654.71, 22558.16, 20948.48, 15060.22, 0.016, 0.048, -1.028, 13:07:33.469, 1560506853469
156, 13898.87, 12211.63, 18424.39, 14458.20, 21601.60, 22503.51, 20887.91, 15006.85, 0.000, 0.000, 0.000, 13:07:33.469, 1560506853469
157, 13721.06, 12031.79, 18253.73, 14297.56, 21460.54, 22362.41, 20737.68, 14864.45, 0.000, 0.000, 0.000, 13:07:33.469, 1560506853469
158, 13692.97, 11998.33, 18221.39, 14251.79, 21409.75, 22312.67, 20693.27, 14816.08, 0.000, 0.000, 0.000, 13:07:33.469, 1560506853469
159, 13890.74, 12215.18, 18438.13, 14448.66, 21589.82, 22486.84, 20877.74, 14993.28, 0.000, 0.000, 0.000, 13:07:33.469, 1560506853469
160, 13959.11, 12285.26, 18521.39, 14529.26, 21675.07, 22571.82, 20967.05, 15079.96, 0.000, 0.000, 0.000, 13:07:33.469, 1560506853469
161, 13904.93, 12229.94, 18462.41, 14480.73, 21631.64, 22533.89, 20917.90, 15038.10, 0.000, 0.000, 0.000, 13:07:33.469, 1560506853469
162, 13738.37, 12061.31, 18270.85, 14314.64, 21468.38, 22381.58, 20752.97, 14882.04, 0.000, 0.000, 0.000, 13:07:33.469, 1560506853469
163, 13709.35, 12027.47, 18237.82, 14255.12, 21395.33, 22315.29, 20694.47, 14820.77, 0.000, 0.000, 0.000, 13:07:33.469, 1560506853469
164, 13900.97, 12206.04, 18458.18, 14441.15, 21560.11, 22477.00, 20872.97, 14989.82, 0.000, 0.000, 0.000, 13:07:33.470, 1560506853470
165, 13978.40, 12288.56, 18518.89, 14519.98, 21650.93, 22566.41, 20956.44, 15075.69, 0.012, 0.050, -1.030, 13:07:33.470, 1560506853470
166, 13903.66, 12223.70, 18422.64, 14464.17, 21603.92, 22517.55, 20890.14, 15016.82, 0.000, 0.000, 0.000, 13:07:33.470, 1560506853470
167, 13726.23, 12025.86, 18238.67, 14294.61, 21443.73, 22355.43, 20714.66, 14847.12, 0.000, 0.000, 0.000, 13:07:33.470, 1560506853470
168, 13690.69, 11986.26, 18217.70, 14245.12, 21389.01, 22296.45, 20659.89, 14788.12, 0.000, 0.000, 0.000, 13:07:33.470, 1560506853470
169, 13883.85, 12205.84, 18436.81, 14436.28, 21563.62, 22464.35, 20844.90, 14961.01, 0.000, 0.000, 0.000, 13:07:33.470, 1560506853470
170, 13947.13, 12277.54, 18516.59, 14516.74, 21650.88, 22548.35, 20931.67, 15046.93, 0.000, 0.000, 0.000, 13:07:33.470, 1560506853470
171, 13872.43, 12189.19, 18445.49, 14449.80, 21602.00, 22500.23, 20876.04, 14996.61, 0.000, 0.000, 0.000, 13:07:33.470, 1560506853470
172, 13700.77, 12005.70, 18240.21, 14272.75, 21430.72, 22341.48, 20705.07, 14835.37, 0.000, 0.000, 0.000, 13:07:33.470, 1560506853470
173, 13651.35, 11963.46, 18202.63, 14224.78, 21375.98, 22290.23, 20661.15, 14789.63, 0.000, 0.000, 0.000, 13:07:33.470, 1560506853470
174, 13854.10, 12169.52, 18419.60, 14421.61, 21550.72, 22459.01, 20845.08, 14965.59, 0.000, 0.000, 0.000, 13:07:33.470, 1560506853470
175, 13947.24, 12254.57, 18503.36, 14509.70, 21638.86, 22543.07, 20928.07, 15050.08, 0.012, 0.054, -1.028, 13:07:33.470, 1560506853470
176, 13894.38, 12204.86, 18429.75, 14458.07, 21608.39, 22507.67, 20887.64, 15010.87, 0.000, 0.000, 0.000, 13:07:33.470, 1560506853470
177, 13708.84, 12032.44, 18247.18, 14280.15, 21454.37, 22354.22, 20722.50, 14852.60, 0.000, 0.000, 0.000, 13:07:33.470, 1560506853470
178, 13665.90, 11975.35, 18208.54, 14220.27, 21392.59, 22289.85, 20664.70, 14793.72, 0.000, 0.000, 0.000, 13:07:33.470, 1560506853470
179, 13852.58, 12171.06, 18397.63, 14417.75, 21559.73, 22450.56, 20844.48, 14965.01, 0.000, 0.000, 0.000, 13:07:33.470, 1560506853470
180, 13936.31, 12253.23, 18502.84, 14503.96, 21648.07, 22543.99, 20938.80, 15060.74, 0.000, 0.000, 0.000, 13:07:33.470, 1560506853470
181, 13871.36, 12190.13, 18446.58, 14443.72, 21599.70, 22508.92, 20894.72, 15023.46, 0.000, 0.000, 0.000, 13:07:33.470, 1560506853470
182, 13695.65, 12011.47, 18261.26, 14294.97, 21452.18, 22372.44, 20744.52, 14886.35, 0.000, 0.000, 0.000, 13:07:33.470, 1560506853470
183, 13660.58, 11972.69, 18208.00, 14243.00, 21403.36, 22326.42, 20695.03, 14841.42, 0.000, 0.000, 0.000, 13:07:33.471, 1560506853471
184, 13867.87, 12176.81, 18420.85, 14432.66, 21569.32, 22494.33, 20871.23, 15012.19, 0.000, 0.000, 0.000, 13:07:33.471, 1560506853471
185, 13944.81, 12257.23, 18496.94, 14516.32, 21644.24, 22569.90, 20951.38, 15091.47, 0.006, 0.058, -1.030, 13:07:33.471, 1560506853471
186, 13880.90, 12203.94, 18429.88, 14467.05, 21594.00, 22523.27, 20893.22, 15041.45, 0.000, 0.000, 0.000, 13:07:33.471, 1560506853471
187, 13710.65, 12021.39, 18261.22, 14297.87, 21430.14, 22368.17, 20718.81, 14877.37, 0.000, 0.000, 0.000, 13:07:33.471, 1560506853471
188, 13650.30, 11963.99, 18201.14, 14229.32, 21356.38, 22289.90, 20637.72, 14793.97, 0.000, 0.000, 0.000, 13:07:33.471, 1560506853471
189, 13852.99, 12171.84, 18415.11, 14425.95, 21533.98, 22453.96, 20817.59, 14961.34, 0.000, 0.000, 0.000, 13:07:33.471, 1560506853471
190, 13928.02, 12252.35, 18482.17, 14517.30, 21629.22, 22541.13, 20903.42, 15044.27, 0.000, 0.000, 0.000, 13:07:33.471, 1560506853471
191, 13860.72, 12187.44, 18415.80, 14445.19, 21582.04, 22496.98, 20849.71, 14992.50, 0.000, 0.000, 0.000, 13:07:33.471, 1560506853471
192, 13694.24, 12014.22, 18252.59, 14270.67, 21431.03, 22349.66, 20687.97, 14836.39, 0.000, 0.000, 0.000, 13:07:33.471, 1560506853471
193, 13650.90, 11947.88, 18201.54, 14210.43, 21364.51, 22280.29, 20617.09, 14760.80, 0.000, 0.000, 0.000, 13:07:33.471, 1560506853471
194, 13843.22, 12143.66, 18410.88, 14407.00, 21545.38, 22447.19, 20797.81, 14928.55, 0.000, 0.000, 0.000, 13:07:33.471, 1560506853471
195, 13925.78, 12229.71, 18493.65, 14509.63, 21643.48, 22538.02, 20899.33, 15025.89, 0.010, 0.060, -1.030, 13:07:33.471, 1560506853471
196, 13865.08, 12189.57, 18413.46, 14432.57, 21595.09, 22484.24, 20847.18, 14975.78, 0.000, 0.000, 0.000, 13:07:33.471, 1560506853471
197, 13672.14, 12011.02, 18211.29, 14254.24, 21428.24, 22322.37, 20679.36, 14814.40, 0.000, 0.000, 0.000, 13:07:33.472, 1560506853472
198, 13636.73, 11940.37, 18183.57, 14218.48, 21373.61, 22275.17, 20639.85, 14777.68, 0.000, 0.000, 0.000, 13:07:33.472, 1560506853472
199, 13819.28, 12125.96, 18394.79, 14404.25, 21547.53, 22443.03, 20824.29, 14955.66, 0.000, 0.000, 0.000, 13:07:33.472, 1560506853472
200, 13900.26, 12218.94, 18477.34, 14494.12, 21644.58, 22537.17, 20917.05, 15049.61, 0.000, 0.000, 0.000, 13:07:33.472, 1560506853472
201, 13854.55, 12164.22, 18432.68, 14433.97, 21593.73, 22492.07, 20863.92, 15004.68, 0.000, 0.000, 0.000, 13:07:33.472, 1560506853472
202, 13676.94, 11984.76, 18259.74, 14266.83, 21432.06, 22340.66, 20697.65, 14850.88, 0.000, 0.000, 0.000, 13:07:33.472, 1560506853472
203, 13628.51, 11933.77, 18194.99, 14212.87, 21367.26, 22285.43, 20631.17, 14789.72, 0.000, 0.000, 0.000, 13:07:33.472, 1560506853472
204, 13836.53, 12144.57, 18383.73, 14401.54, 21538.59, 22454.45, 20815.60, 14964.58, 0.000, 0.000, 0.000, 13:07:33.472, 1560506853472
205, 13925.74, 12249.38, 18482.34, 14502.19, 21640.71, 22555.28, 20919.36, 15069.50, 0.010, 0.056, -1.026, 13:07:33.472, 1560506853472
206, 13870.60, 12175.42, 18423.07, 14448.95, 21601.15, 22517.57, 20873.15, 15032.55, 0.000, 0.000, 0.000, 13:07:33.472, 1560506853472
207, 13672.63, 11998.68, 18251.14, 14278.61, 21435.75, 22357.85, 20697.85, 14870.37, 0.000, 0.000, 0.000, 13:07:33.472, 1560506853472
208, 13616.39, 11952.01, 18206.21, 14229.66, 21369.47, 22294.75, 20629.83, 14807.45, 0.000, 0.000, 0.000, 13:07:33.472, 1560506853472
209, 13835.35, 12141.04, 18408.49, 14419.02, 21542.70, 22464.13, 20808.18, 14976.70, 0.000, 0.000, 0.000, 13:07:33.472, 1560506853472
210, 13925.78, 12233.56, 18489.21, 14519.16, 21639.21, 22561.94, 20903.46, 15067.00, 0.000, 0.000, 0.000, 13:07:33.472, 1560506853472
211, 13870.15, 12179.20, 18439.94, 14471.68, 21591.99, 22522.87, 20851.00, 15020.08, 0.000, 0.000, 0.000, 13:07:33.472, 1560506853472
212, 13696.23, 11994.08, 18246.60, 14286.81, 21417.31, 22355.52, 20670.98, 14845.45, 0.000, 0.000, 0.000, 13:07:33.472, 1560506853472
213, 13623.75, 11940.64, 18190.94, 14210.93, 21345.74, 22281.07, 20604.93, 14773.09, 0.000, 0.000, 0.000, 13:07:33.472, 1560506853472
214, 13821.83, 12143.23, 18390.43, 14389.02, 21522.83, 22444.19, 20788.64, 14942.54, 0.000, 0.000, 0.000, 13:07:33.472, 1560506853472
215, 13888.12, 12200.72, 18442.69, 14463.97, 21607.03, 22517.59, 20862.29, 15012.73, 0.008, 0.054, -1.032, 13:07:33.472, 1560506853472
216, 13831.73, 12139.59, 18382.99, 14425.70, 21570.68, 22482.35, 20820.78, 14975.13, 0.000, 0.000, 0.000, 13:07:33.473, 1560506853473
217, 13665.28, 11966.43, 18229.46, 14274.63, 21427.37, 22342.60, 20676.75, 14834.76, 0.000, 0.000, 0.000, 13:07:33.473, 1560506853473
218, 13603.11, 11916.32, 18181.51, 14212.04, 21367.78, 22277.78, 20622.61, 14777.72, 0.000, 0.000, 0.000, 13:07:33.473, 1560506853473
219, 13772.56, 12109.86, 18379.41, 14386.23, 21528.78, 22426.46, 20792.78, 14937.89, 0.000, 0.000, 0.000, 13:07:33.473, 1560506853473
220, 13869.55, 12196.12, 18472.80, 14488.67, 21630.19, 22522.09, 20892.73, 15036.13, 0.000, 0.000, 0.000, 13:07:33.473, 1560506853473
221, 13811.12, 12122.02, 18391.06, 14420.14, 21574.95, 22466.72, 20828.92, 14977.59, 0.000, 0.000, 0.000, 13:07:33.473, 1560506853473
222, 13659.67, 11965.36, 18221.66, 14251.09, 21426.63, 22328.01, 20670.74, 14832.50, 0.000, 0.000, 0.000, 13:07:33.473, 1560506853473
223, 13616.79, 11913.32, 18188.64, 14197.67, 21361.65, 22267.72, 20620.18, 14779.31, 0.000, 0.000, 0.000, 13:07:33.473, 1560506853473
224, 13808.97, 12094.30, 18377.92, 14382.88, 21517.00, 22426.60, 20789.16, 14941.07, 0.000, 0.000, 0.000, 13:07:33.473, 1560506853473
225, 13882.02, 12195.67, 18469.71, 14482.12, 21622.63, 22529.62, 20889.69, 15044.58, 0.010, 0.050, -1.032, 13:07:33.473, 1560506853473
226, 13805.00, 12136.71, 18391.82, 14423.25, 21576.32, 22485.81, 20833.68, 14998.67, 0.000, 0.000, 0.000, 13:07:33.473, 1560506853473
227, 13637.94, 11965.69, 18212.04, 14256.86, 21422.54, 22340.46, 20674.13, 14850.12, 0.000, 0.000, 0.000, 13:07:33.473, 1560506853473
228, 13573.66, 11880.15, 18132.61, 14171.94, 21329.91, 22248.84, 20576.97, 14756.73, 0.000, 0.000, 0.000, 13:07:33.473, 1560506853473
229, 13768.25, 12075.62, 18343.99, 14364.82, 21493.46, 22408.49, 20748.16, 14918.87, 0.000, 0.000, 0.000, 13:07:33.473, 1560506853473
230, 13848.89, 12158.77, 18434.18, 14453.71, 21582.82, 22498.75, 20827.60, 14999.54, 0.000, 0.000, 0.000, 13:07:33.474, 1560506853474
231, 13799.34, 12109.64, 18390.25, 14416.29, 21554.55, 22469.96, 20784.28, 14960.11, 0.000, 0.000, 0.000, 13:07:33.474, 1560506853474
232, 13635.26, 11934.67, 18225.16, 14253.33, 21396.86, 22321.55, 20627.64, 14806.17, 0.000, 0.000, 0.000, 13:07:33.474, 1560506853474
233, 13568.16, 11862.32, 18148.99, 14169.75, 21307.72, 22233.77, 20540.67, 14715.67, 0.000, 0.000, 0.000, 13:07:33.474, 1560506853474
234, 13769.57, 12064.04, 18348.55, 14348.68, 21469.34, 22385.43, 20711.88, 14872.56, 0.000, 0.000, 0.000, 13:07:33.474, 1560506853474
235, 13884.52, 12183.24, 18460.39, 14454.09, 21585.06, 22494.97, 20827.13, 14984.74, 0.012, 0.054, -1.038, 13:07:33.474, 1560506853474
236, 13820.66, 12141.20, 18389.47, 14406.46, 21554.66, 22464.31, 20790.18, 14953.09, 0.000, 0.000, 0.000, 13:07:33.474, 1560506853474
237, 13638.09, 11960.06, 18210.32, 14248.30, 21408.63, 22318.19, 20633.95, 14807.02, 0.000, 0.000, 0.000, 13:07:33.474, 1560506853474
238, 13556.87, 11876.44, 18157.37, 14171.25, 21335.59, 22245.86, 20564.12, 14739.68, 0.000, 0.000, 0.000, 13:07:33.474, 1560506853474
239, 13761.01, 12072.04, 18352.62, 14370.47, 21516.73, 22416.34, 20755.85, 14920.88, 0.000, 0.000, 0.000, 13:07:33.474, 1560506853474
240, 13851.02, 12155.86, 18441.62, 14480.20, 21615.37, 22511.31, 20852.70, 15018.70, 0.000, 0.000, 0.000, 13:07:33.474, 1560506853474
241, 13804.17, 12118.06, 18382.68, 14423.00, 21573.75, 22476.15, 20807.71, 14982.13, 0.000, 0.000, 0.000, 13:07:33.474, 1560506853474
242, 13640.67, 11955.70, 18221.79, 14261.78, 21423.65, 22334.94, 20655.67, 14839.84, 0.000, 0.000, 0.000, 13:07:33.945, 1560506853945
243, 13581.79, 11883.33, 18172.28, 14202.37, 21353.76, 22265.98, 20591.63, 14780.22, 0.000, 0.000, 0.000, 13:07:33.945, 1560506853945
244, 13757.86, 12058.07, 18352.77, 14367.54, 21504.05, 22408.74, 20750.38, 14929.98, 0.014, 0.058, -1.040, 13:07:33.945, 1560506853945
245, 13863.09, 12174.62, 18457.58, 14467.48, 21607.30, 22512.81, 20859.92, 15035.48, 0.000, 0.000, 0.000, 13:07:33.945, 1560506853945
246, 13807.28, 12124.35, 18413.70, 14431.38, 21573.97, 22488.11, 20824.52, 15006.87, 0.000, 0.000, 0.000, 13:07:33.945, 1560506853945
247, 13631.05, 11951.34, 18238.80, 14278.07, 21422.20, 22346.40, 20668.17, 14859.86, 0.000, 0.000, 0.000, 13:07:33.945, 1560506853945
248, 13557.47, 11871.86, 18150.20, 14187.52, 21328.88, 22253.91, 20578.11, 14766.81, 0.000, 0.000, 0.000, 13:07:33.945, 1560506853945
249, 13750.44, 12056.93, 18354.63, 14356.73, 21494.08, 22409.48, 20751.49, 14924.30, 0.000, 0.000, 0.000, 13:07:33.945, 1560506853945
250, 13853.86, 12168.16, 18449.67, 14466.90, 21605.38, 22520.75, 20864.28, 15028.53, 0.000, 0.000, 0.000, 13:07:33.945, 1560506853945
251, 13793.80, 12099.33, 18366.38, 14412.38, 21553.09, 22469.76, 20798.86, 14962.95, 0.000, 0.000, 0.000, 13:07:33.945, 1560506853945
252, 13619.21, 11930.44, 18201.12, 14255.41, 21397.64, 22318.53, 20632.76, 14799.74, 0.000, 0.000, 0.000, 13:07:33.945, 1560506853945
253, 13533.60, 11848.41, 18140.63, 14179.81, 21322.63, 22237.50, 20551.45, 14712.97, 0.000, 0.000, 0.000, 13:07:33.945, 1560506853945
254, 13725.94, 12040.50, 18355.01, 14353.62, 21490.82, 22392.29, 20711.60, 14864.49, 0.016, 0.058, -1.040, 13:07:33.946, 1560506853946
255, 13841.38, 12149.92, 18458.63, 14453.60, 21593.75, 22495.87, 20808.31, 14964.69, 0.000, 0.000, 0.000, 13:07:33.946, 1560506853946
0, 13793.24, 12095.53, 18387.68, 14415.67, 21549.74, 22455.39, 20752.30, 14921.71, 0.000, 0.000, 0.000, 13:07:33.946, 1560506853946
1, 13631.08, 11942.60, 18216.11, 14260.50, 21406.51, 22315.36, 20598.03, 14784.09, 0.000, 0.000, 0.000, 13:07:33.946, 1560506853946
2, 13561.12, 11881.81, 18134.62, 14173.44, 21325.60, 22238.02, 20516.96, 14711.27, 0.000, 0.000, 0.000, 13:07:33.946, 1560506853946
3, 13742.92, 12063.55, 18337.64, 14352.26, 21485.10, 22394.88, 20689.53, 14877.79, 0.000, 0.000, 0.000, 13:07:33.946, 1560506853946
4, 13835.55, 12171.40, 18445.42, 14455.36, 21593.04, 22501.28, 20798.99, 14991.96, 0.000, 0.000, 0.000, 13:07:33.946, 1560506853946
5, 13780.59, 12103.80, 18399.44, 14418.80, 21564.20, 22477.56, 20770.34, 14971.20, 0.000, 0.000, 0.000, 13:07:33.946, 1560506853946
6, 13629.74, 11923.63, 18225.41, 14260.61, 21416.84, 22336.46, 20619.95, 14829.33, 0.000, 0.000, 0.000, 13:07:33.946, 1560506853946
7, 13543.32, 11836.83, 18155.23, 14178.83, 21323.41, 22245.89, 20530.72, 14743.32, 0.000, 0.000, 0.000, 13:07:33.946, 1560506853946
8, 13720.08, 12030.29, 18335.69, 14352.21, 21483.00, 22397.16, 20703.91, 14908.97, 0.014, 0.058, -1.036, 13:07:33.946, 1560506853946
9, 13836.36, 12145.67, 18431.65, 14463.90, 21597.62, 22512.36, 20819.93, 15027.48, 0.000, 0.000, 0.000, 13:07:33.946, 1560506853946
10, 13788.99, 12107.67, 18385.74, 14426.22, 21568.61, 22487.66, 20789.33, 15003.56, 0.000, 0.000, 0.000, 13:07:33.946, 1560506853946
11, 13621.55, 11943.23, 18221.07, 14257.31, 21416.81, 22338.36, 20640.38, 14857.03, 0.000, 0.000, 0.000, 13:07:33.946, 1560506853946
12, 13528.19, 11855.34, 18136.18, 14169.02, 21314.38, 22237.73, 20547.04, 14756.98, 0.000, 0.000, 0.000, 13:07:33.946, 1560506853946
13, 13711.54, 12043.90, 18313.72, 14348.17, 21467.33, 22383.19, 20706.99, 14900.07, 0.000, 0.000, 0.000, 13:07:33.946, 1560506853946
14, 13815.25, 12133.62, 18418.64, 14448.52, 21578.57, 22483.75, 20814.39, 14991.31, 0.000, 0.000, 0.000, 13:07:33.946, 1560506853946
15, 13755.11, 12062.88, 18369.06, 14390.12, 21546.16, 22451.23, 20777.04, 14950.48, 0.000, 0.000, 0.000, 13:07:33.946, 1560506853946
16, 13588.76, 11886.19, 18189.02, 14229.88, 21390.62, 22303.71, 20610.23, 14791.07, 0.000, 0.000, 0.000, 13:07:33.946, 1560506853946
17, 13499.83, 11811.78, 18107.84, 14143.58, 21292.63, 22213.30, 20511.55, 14695.18, 0.000, 0.000, 0.000, 13:07:33.947, 1560506853947
18, 13674.51, 11984.69, 18296.15, 14305.61, 21442.12, 22355.79, 20666.56, 14841.58, 0.018, 0.054, -1.034, 13:07:33.948, 1560506853948
19, 13770.78, 12082.01, 18384.22, 14413.28, 21544.64, 22459.05, 20765.17, 14942.65, 0.000, 0.000, 0.000, 13:07:33.948, 1560506853948
20, 13719.79, 12035.05, 18341.04, 14362.74, 21503.07, 22423.04, 20721.09, 14905.24, 0.000, 0.000, 0.000, 13:07:33.948, 1560506853948
21, 13568.51, 11898.68, 18174.45, 14203.01, 21357.78, 22280.64, 20566.35, 14762.50, 0.000, 0.000, 0.000, 13:07:33.948, 1560506853948
22, 13475.69, 11824.79, 18074.34, 14113.20, 21268.42, 22190.83, 20479.38, 14678.77, 0.000, 0.000, 0.000, 13:07:33.948, 1560506853948
23, 13640.08, 11994.57, 18274.58, 14295.95, 21425.96, 22341.04, 20642.77, 14834.03, 0.000, 0.000, 0.000, 13:07:33.948, 1560506853948
24, 13749.59, 12073.43, 18375.01, 14405.74, 21531.59, 22442.00, 20746.87, 14938.27, 0.000, 0.000, 0.000, 13:07:33.949, 1560506853949
25, 13727.41, 12037.89, 18317.37, 14371.79, 21508.99, 22420.32, 20718.57, 14916.28, 0.000, 0.000, 0.000, 13:07:33.949, 1560506853949
26, 13567.11, 11888.98, 18173.55, 14225.86, 21371.84, 22290.12, 20576.26, 14781.50, 0.000, 0.000, 0.000, 13:07:33.949, 1560506853949
27, 13475.33, 11784.53, 18101.47, 14143.42, 21280.18, 22199.93, 20482.96, 14690.97, 0.000, 0.000, 0.000, 13:07:33.949, 1560506853949
28, 13641.98, 11948.97, 18278.12, 14303.95, 21426.20, 22338.29, 20635.93, 14837.29, 0.016, 0.054, -1.030, 13:07:33.949, 1560506853949
29, 13771.38, 12070.72, 18389.63, 14410.71, 21541.11, 22452.46, 20751.92, 14955.40, 0.000, 0.000, 0.000, 13:07:33.949, 1560506853949
30, 13740.53, 12037.53, 18349.48, 14364.35, 21508.52, 22421.44, 20718.84, 14929.20, 0.000, 0.000, 0.000, 13:07:33.949, 1560506853949
31, 13573.86, 11897.70, 18181.76, 14210.12, 21372.54, 22287.48, 20577.89, 14796.83, 0.000, 0.000, 0.000, 13:07:33.949, 1560506853949
32, 13462.25, 11800.85, 18083.19, 14108.93, 21277.99, 22187.26, 20478.56, 14694.93, 0.000, 0.000, 0.000, 13:07:33.949, 1560506853949
33, 13628.10, 11956.08, 18270.63, 14270.16, 21419.65, 22324.54, 20632.60, 14829.58, 0.000, 0.000, 0.000, 13:07:33.949, 1560506853949
34, 13740.51, 12046.65, 18382.14, 14386.45, 21522.45, 22430.82, 20739.71, 14926.96, 0.000, 0.000, 0.000, 13:07:33.949, 1560506853949
35, 13703.54, 12007.11, 18327.09, 14349.33, 21491.47, 22401.83, 20705.85, 14890.37, 0.000, 0.000, 0.000, 13:07:33.950, 1560506853950
36, 13545.78, 11851.27, 18153.10, 14198.45, 21351.23, 22267.81, 20559.42, 14747.97, 0.000, 0.000, 0.000, 13:07:33.950, 1560506853950
37, 13447.12, 11752.95, 18058.82, 14106.92, 21253.85, 22169.67, 20463.38, 14649.76, 0.000, 0.000, 0.000, 13:07:33.950, 1560506853950
38, 13633.51, 11939.83, 18249.93, 14275.12, 21406.87, 22316.00, 20625.45, 14801.91, 0.012, 0.052, -1.028, 13:07:33.950, 1560506853950
39, 13734.57, 12058.45, 18365.62, 14388.78, 21521.89, 22428.52, 20740.09, 14917.80, 0.000, 0.000, 0.000, 13:07:33.950, 1560506853950
40, 13679.87, 12013.06, 18323.56, 14356.28, 21496.48, 22405.01, 20706.74, 14892.92, 0.000, 0.000, 0.000, 13:07:33.950, 1560506853950
41, 13528.73, 11859.95, 18171.03, 14209.32, 21357.56, 22274.59, 20561.06, 14756.42, 0.000, 0.000, 0.000, 13:07:33.950, 1560506853950
42, 13424.30, 11752.82, 18077.73, 14101.27, 21241.04, 22166.63, 20448.52, 14646.56, 0.000, 0.000, 0.000, 13:07:33.950, 1560506853950
43, 13607.96, 11914.06, 18248.19, 14255.85, 21382.57, 22305.21, 20596.64, 14788.32, 0.000, 0.000, 0.000, 13:07:33.950, 1560506853950
44, 13722.32, 12024.84, 18344.72, 14375.10, 21490.49, 22412.43, 20699.35, 14895.07, 0.000, 0.000, 0.000, 13:07:33.950, 1560506853950
45, 13668.72, 11990.32, 18291.57, 14329.35, 21463.84, 22389.83, 20667.34, 14869.74, 0.000, 0.000, 0.000, 13:07:33.950, 1560506853950
46, 13511.03, 11840.48, 18131.87, 14176.91, 21334.36, 22266.00, 20534.66, 14746.16, 0.000, 0.000, 0.000, 13:07:33.950, 1560506853950
47, 13419.83, 11738.26, 18034.71, 14072.10, 21225.93, 22159.14, 20433.05, 14647.30, 0.000, 0.000, 0.000, 13:07:33.950, 1560506853950
48, 13576.99, 11885.52, 18200.29, 14225.77, 21359.01, 22281.71, 20571.58, 14777.81, 0.014, 0.054, -1.036, 13:07:33.951, 1560506853951
49, 13691.58, 12000.41, 18331.18, 14345.89, 21479.38, 22396.58, 20694.90, 14896.39, 0.000, 0.000, 0.000, 13:07:33.951, 1560506853951
50, 13666.37, 11973.76, 18284.78, 14324.99, 21460.33, 22376.40, 20677.73, 14879.91, 0.000, 0.000, 0.000, 13:07:33.951, 1560506853951
51, 13500.92, 11811.96, 18114.48, 14168.26, 21318.31, 22236.41, 20527.69, 14738.72, 0.000, 0.000, 0.000, 13:07:33.951, 1560506853951
52, 13395.11, 11715.31, 18033.70, 14056.97, 21206.62, 22132.23, 20419.41, 14635.00, 0.000, 0.000, 0.000, 13:07:33.951, 1560506853951
53, 13565.81, 11898.33, 18231.04, 14230.62, 21360.40, 22275.93, 20577.08, 14785.83, 0.000, 0.000, 0.000, 13:07:33.951, 1560506853951
54, 13669.41, 11995.87, 18325.52, 14348.23, 21482.28, 22390.55, 20698.18, 14903.20, 0.000, 0.000, 0.000, 13:07:33.951, 1560506853951
55, 13620.33, 11929.48, 18275.28, 14302.17, 21449.43, 22357.98, 20664.81, 14869.70, 0.000, 0.000, 0.000, 13:07:33.951, 1560506853951
56, 13465.20, 11779.95, 18109.34, 14151.25, 21310.38, 22221.37, 20514.12, 14725.55, 0.000, 0.000, 0.000, 13:07:33.951, 1560506853951
57, 13378.75, 11692.62, 18003.30, 14054.51, 21214.64, 22124.63, 20422.74, 14631.09, 0.000, 0.000, 0.000, 13:07:33.951, 1560506853951
58, 13559.71, 11877.18, 18188.31, 14211.93, 21360.94, 22265.85, 20577.60, 14772.22, 0.014, 0.058, -1.034, 13:07:33.951, 1560506853951
59, 13671.22, 11986.68, 18298.39, 14318.28, 21469.88, 22374.23, 20689.62, 14878.19, 0.000, 0.000, 0.000, 13:07:33.951, 1560506853951
60, 13618.83, 11935.85, 18251.88, 14281.11, 21432.55, 22345.44, 20646.55, 14839.23, 0.000, 0.000, 0.000, 13:07:33.951, 1560506853951
61, 13470.93, 11791.13, 18093.56, 14137.21, 21292.70, 22214.32, 20499.32, 14701.43, 0.000, 0.000, 0.000, 13:07:33.951, 1560506853951
62, 13373.12, 11694.34, 18010.45, 14045.17, 21197.79, 22120.34, 20401.78, 14606.80, 0.000, 0.000, 0.000, 13:07:33.951, 1560506853951
63, 13541.49, 11859.59, 18194.01, 14219.22, 21348.53, 22267.72, 20558.87, 14755.59, 0.000, 0.000, 0.000, 13:07:33.951, 1560506853951
64, 13668.36, 11985.90, 18324.76, 14350.36, 21480.61, 22393.38, 20682.05, 14878.86, 0.000, 0.000, 0.000, 13:07:33.951, 1560506853951
65, 13621.44, 11940.86, 18280.31, 14306.50, 21447.91, 22364.26, 20645.08, 14848.49, 0.000, 0.000, 0.000, 13:07:33.951, 1560506853951
66, 13458.75, 11777.04, 18120.74, 14156.30, 21303.25, 22226.11, 20496.82, 14707.65, 0.000, 0.000, 0.000, 13:07:33.951, 1560506853951
67, 13359.57, 11675.95, 18008.87, 14045.21, 21186.57, 22114.57, 20379.74, 14597.34, 0.000, 0.000, 0.000, 13:07:33.951, 1560506853951
68, 13532.42, 11847.32, 18170.60, 14203.77, 21327.72, 22252.64, 20532.18, 14742.29, 0.016, 0.056, -1.028, 13:07:33.951, 1560506853951
69, 13664.98, 11971.10, 18304.20, 14327.78, 21459.48, 22378.34, 20668.75, 14875.00, 0.000, 0.000, 0.000, 13:07:33.952, 1560506853952
70, 13636.17, 11938.63, 18263.50, 14297.18, 21433.33, 22355.01, 20639.80, 14852.26, 0.000, 0.000, 0.000, 13:07:33.952, 1560506853952
71, 13468.29, 11791.51, 18092.06, 14140.18, 21289.99, 22218.17, 20491.16, 14710.84, 0.000, 0.000, 0.000, 13:07:33.952, 1560506853952
72, 13357.09, 11684.02, 17998.07, 14039.80, 21197.43, 22126.64, 20397.89, 14619.76, 0.000, 0.000, 0.000, 13:07:33.952, 1560506853952
73, 13537.89, 11850.74, 18195.97, 14221.10, 21354.88, 22279.62, 20562.04, 14777.41, 0.000, 0.000, 0.000, 13:07:33.952, 1560506853952
74, 13657.43, 11976.94, 18312.98, 14345.39, 21476.88, 22396.80, 20681.87, 14895.63, 0.000, 0.000, 0.000, 13:07:33.952, 1560506853952
75, 13607.29, 11931.34, 18284.15, 14308.60, 21450.54, 22370.09, 20653.53, 14871.20, 0.000, 0.000, 0.000, 13:07:33.952, 1560506853952
76, 13448.87, 11777.56, 18106.23, 14153.04, 21309.77, 22237.71, 20506.36, 14736.97, 0.000, 0.000, 0.000, 13:07:33.952, 1560506853952
77, 13351.61, 11668.75, 17984.44, 14046.71, 21195.67, 22131.85, 20394.60, 14631.54, 0.000, 0.000, 0.000, 13:07:33.952, 1560506853952
78, 13522.42, 11825.32, 18176.08, 14207.44, 21334.98, 22269.51, 20547.69, 14771.78, 0.014, 0.054, -1.034, 13:07:33.952, 1560506853952
79, 13640.55, 11958.47, 18318.64, 14338.55, 21472.47, 22402.73, 20688.08, 14903.23, 0.000, 0.000, 0.000, 13:07:33.952, 1560506853952
80, 13601.62, 11929.55, 18273.29, 14307.22, 21457.99, 22388.24, 20669.80, 14885.93, 0.000, 0.000, 0.000, 13:07:33.952, 1560506853952
81, 13443.30, 11768.91, 18089.13, 14144.92, 21302.91, 22237.17, 20505.40, 14726.85, 0.000, 0.000, 0.000, 13:07:33.952, 1560506853952
82, 13334.65, 11685.36, 17976.99, 14025.36, 21186.17, 22119.46, 20390.29, 14609.01, 0.000, 0.000, 0.000, 13:07:33.952, 1560506853952
83, 13513.31, 11840.30, 18159.99, 14191.37, 21330.96, 22258.60, 20544.58, 14749.85, 0.000, 0.000, 0.000, 13:07:33.952, 1560506853952
84, 13626.38, 11920.95, 18279.32, 14307.26, 21443.86, 22370.05, 20651.47, 14858.84, 0.000, 0.000, 0.000, 13:07:33.952, 1560506853952
85, 13592.50, 11895.78, 18250.06, 14285.92, 21424.62, 22352.32, 20625.88, 14839.08, 0.000, 0.000, 0.000, 13:07:33.952, 1560506853952
86, 13440.35, 11744.14, 18091.84, 14139.44, 21287.20, 22219.89, 20480.03, 14700.74, 0.000, 0.000, 0.000, 13:07:33.952, 1560506853952
87, 13328.34, 11644.54, 17977.20, 14028.02, 21178.46, 22109.79, 20360.18, 14584.96, 0.000, 0.000, 0.000, 13:07:33.952, 1560506853952
88, 13475.73, 11809.30, 18150.67, 14177.29, 21314.67, 22237.71, 20498.00, 14710.82, 0.014, 0.054, -1.030, 13:07:33.952, 1560506853952
89, 13609.53, 11934.02, 18296.20, 14310.66, 21441.76, 22365.69, 20622.79, 14837.62, 0.000, 0.000, 0.000, 13:07:33.952, 1560506853952
90, 13587.40, 11906.17, 18254.00, 14285.60, 21421.71, 22351.32, 20596.33, 14821.73, 0.000, 0.000, 0.000, 13:07:33.953, 1560506853953
91, 13443.70, 11751.38, 18083.63, 14141.34, 21291.02, 22221.16, 20453.41, 14684.78, 0.000, 0.000, 0.000, 13:07:33.953, 1560506853953
92, 13329.51, 11653.55, 17972.97, 14019.53, 21176.00, 22109.92, 20343.46, 14586.93, 0.000, 0.000, 0.000, 13:07:33.953, 1560506853953
93, 13493.99, 11837.62, 18168.30, 14187.66, 21328.15, 22261.42, 20515.59, 14759.19, 0.000, 0.000, 0.000, 13:07:33.953, 1560506853953
94, 13643.39, 11945.24, 18297.67, 14313.45, 21450.05, 22384.73, 20645.50, 14886.19, 0.000, 0.000, 0.000, 13:07:33.953, 1560506853953
95, 13580.99, 11879.86, 18232.79, 14272.17, 21424.57, 22353.38, 20610.43, 14854.19, 0.000, 0.000, 0.000, 13:07:33.953, 1560506853953
96, 13410.91, 11735.36, 18073.91, 14136.32, 21294.44, 22225.63, 20468.36, 14719.12, 0.000, 0.000, 0.000, 13:07:33.953, 1560506853953
97, 13295.26, 11632.54, 17969.21, 14021.67, 21174.57, 22108.47, 20353.03, 14603.60, 0.012, 0.054, -1.030, 13:07:33.953, 1560506853953
98, 13468.22, 11807.53, 18141.41, 14171.92, 21317.62, 22244.70, 20512.96, 14748.71, 0.000, 0.000, 0.000, 13:07:33.953, 1560506853953
99, 13610.22, 11940.39, 18274.00, 14307.19, 21453.34, 22376.04, 20647.27, 14879.18, 0.000, 0.000, 0.000, 13:07:33.953, 1560506853953
100, 13576.52, 11895.04, 18244.68, 14283.68, 21431.28, 22354.94, 20621.61, 14854.72, 0.000, 0.000, 0.000, 13:07:33.953, 1560506853953
101, 13430.45, 11742.40, 18096.37, 14152.23, 21301.12, 22230.57, 20493.06, 14727.03, 0.000, 0.000, 0.000, 13:07:33.953, 1560506853953
102, 13313.26, 11635.20, 17967.92, 14028.02, 21177.85, 22108.98, 20372.81, 14607.07, 0.000, 0.000, 0.000, 13:07:33.954, 1560506853954
103, 13471.35, 11803.91, 18145.71, 14169.40, 21314.06, 22238.11, 20521.83, 14743.03, 0.000, 0.000, 0.000, 13:07:33.954, 1560506853954
104, 13608.48, 11941.11, 18284.35, 14311.64, 21450.05, 22369.42, 20654.62, 14874.28, 0.000, 0.000, 0.000, 13:07:33.954, 1560506853954
105, 13565.83, 11892.16, 18239.54, 14268.03, 21422.09, 22346.27, 20618.28, 14844.13, 0.000, 0.000, 0.000, 13:07:33.954, 1560506853954
106, 13427.65, 11734.06, 18076.30, 14130.95, 21289.46, 22225.05, 20479.05, 14713.19, 0.000, 0.000, 0.000, 13:07:34.424, 1560506854424
107, 13312.70, 11631.80, 17977.46, 14029.92, 21175.66, 22114.01, 20360.72, 14599.13, 0.010, 0.054, -1.032, 13:07:34.424, 1560506854424
108, 13464.58, 11791.19, 18155.83, 14178.99, 21309.77, 22239.72, 20497.33, 14725.93, 0.000, 0.000, 0.000, 13:07:34.424, 1560506854424
109, 13594.04, 11916.25, 18278.29, 14309.79, 21431.84, 22360.46, 20617.96, 14842.94, 0.000, 0.000, 0.000, 13:07:34.424, 1560506854424
110, 13568.07, 11882.12, 18233.55, 14270.09, 21398.17, 22333.82, 20580.35, 14810.73, 0.000, 0.000, 0.000, 13:07:34.424, 1560506854424
111, 13430.13, 11749.19, 18061.42, 14130.33, 21276.09, 22213.43, 20441.32, 14683.89, 0.000, 0.000, 0.000, 13:07:34.424, 1560506854424
112, 13326.96, 11657.62, 17959.27, 14025.18, 21169.69, 22108.47, 20330.45, 14580.62, 0.000, 0.000, 0.000, 13:07:34.424, 1560506854424
113, 13472.13, 11800.67, 18139.92, 14173.75, 21312.34, 22239.38, 20488.14, 14726.02, 0.000, 0.000, 0.000, 13:07:34.424, 1560506854424
114, 13589.10, 11929.30, 18288.24, 14313.03, 21451.04, 22371.50, 20627.82, 14862.39, 0.000, 0.000, 0.000, 13:07:34.425, 1560506854425
115, 13549.81, 11882.83, 18243.67, 14279.37, 21428.93, 22355.83, 20602.03, 14843.82, 0.000, 0.000, 0.000, 13:07:34.425, 1560506854425
116, 13416.14, 11724.70, 18095.95, 14141.93, 21300.05, 22233.70, 20470.38, 14722.76, 0.000, 0.000, 0.000, 13:07:34.425, 1560506854425
117, 13296.65, 11609.36, 17966.58, 14015.35, 21170.83, 22110.41, 20343.80, 14602.91, 0.006, 0.052, -1.032, 13:07:34.425, 1560506854425
118, 13446.56, 11776.51, 18139.87, 14166.89, 21300.85, 22236.03, 20488.14, 14739.05, 0.000, 0.000, 0.000, 13:07:34.425, 1560506854425
119, 13584.21, 11912.65, 18280.64, 14309.45, 21436.55, 22364.17, 20625.38, 14873.74, 0.000, 0.000, 0.000, 13:07:34.425, 1560506854425
120, 13560.56, 11878.52, 18237.77, 14281.33, 21414.42, 22343.00, 20602.88, 14852.71, 0.000, 0.000, 0.000, 13:07:34.425, 1560506854425
121, 13437.94, 11743.45, 18090.54, 14136.34, 21286.77, 22221.03, 20468.14, 14722.15, 0.000, 0.000, 0.000, 13:07:34.425, 1560506854425
122, 13323.49, 11641.66, 17968.86, 14006.81, 21163.44, 22099.41, 20345.61, 14598.30, 0.000, 0.000, 0.000, 13:07:34.425, 1560506854425
123, 13458.83, 11783.84, 18110.41, 14158.35, 21301.77, 22225.99, 20488.30, 14730.89, 0.000, 0.000, 0.000, 13:07:34.425, 1560506854425
124, 13578.86, 11895.37, 18256.05, 14312.02, 21443.08, 22364.15, 20628.51, 14869.25, 0.000, 0.000, 0.000, 13:07:34.425, 1560506854425
125, 13537.54, 11867.90, 18246.20, 14287.06, 21418.98, 22343.99, 20597.33, 14844.44, 0.000, 0.000, 0.000, 13:07:34.425, 1560506854425
126, 13396.03, 11738.73, 18096.89, 14147.51, 21301.41, 22226.17, 20476.12, 14724.39, 0.000, 0.000, 0.000, 13:07:34.425, 1560506854425
127, 13280.24, 11602.77, 17960.21, 14004.95, 21173.79, 22097.89, 20345.65, 14597.32, 0.014, 0.052, -1.032, 13:07:34.425, 1560506854425
128, 13439.72, 11766.70, 18128.76, 14145.70, 21302.87, 22218.44, 20473.13, 14719.47, 0.000, 0.000, 0.000, 13:07:34.425, 1560506854425
129, 13593.53, 11910.31, 18286.12, 14317.63, 21453.61, 22366.05, 20614.63, 14858.01, 0.000, 0.000, 0.000, 13:07:34.426, 1560506854426
130, 13563.71, 11876.35, 18259.38, 14293.69, 21436.30, 22354.18, 20587.65, 14834.70, 0.000, 0.000, 0.000, 13:07:34.426, 1560506854426
131, 13426.56, 11737.93, 18100.62, 14151.60, 21300.59, 22232.83, 20444.27, 14699.40, 0.000, 0.000, 0.000, 13:07:34.426, 1560506854426
132, 13316.81, 11609.07, 17966.91, 14024.13, 21180.45, 22120.40, 20313.89, 14575.75, 0.000, 0.000, 0.000, 13:07:34.426, 1560506854426
133, 13452.93, 11766.05, 18130.86, 14167.34, 21309.59, 22243.58, 20446.66, 14700.58, 0.000, 0.000, 0.000, 13:07:34.426, 1560506854426
134, 13596.63, 11925.73, 18306.53, 14327.98, 21458.59, 22392.22, 20597.62, 14852.47, 0.000, 0.000, 0.000, 13:07:34.426, 1560506854426
135, 13561.34, 11902.88, 18270.23, 14304.33, 21437.36, 22377.47, 20575.85, 14838.36, 0.000, 0.000, 0.000, 13:07:34.426, 1560506854426
136, 13408.86, 11736.70, 18091.26, 14146.62, 21296.65, 22242.09, 20432.89, 14701.84, 0.000, 0.000, 0.000, 13:07:34.426, 1560506854426
137, 13268.51, 11591.03, 17961.10, 14002.09, 21158.38, 22100.11, 20297.87, 14569.38, 0.012, 0.056, -1.034, 13:07:34.426, 1560506854426
138, 13427.36, 11768.04, 18121.95, 14154.53, 21291.18, 22224.94, 20443.87, 14707.92, 0.000, 0.000, 0.000, 13:07:34.426, 1560506854426
139, 13582.53, 11917.86, 18277.51, 14313.97, 21445.96, 22378.95, 20603.48, 14865.05, 0.000, 0.000, 0.000, 13:07:34.426, 1560506854426
140, 13536.28, 11859.90, 18245.68, 14290.43, 21428.57, 22360.33, 20587.70, 14853.58, 0.000, 0.000, 0.000, 13:07:34.426, 1560506854426
141, 13406.67, 11716.43, 18111.13, 14161.71, 21313.79, 22251.85, 20472.88, 14747.14, 0.000, 0.000, 0.000, 13:07:34.426, 1560506854426
142, 13297.79, 11605.61, 17965.06, 14018.81, 21181.07, 22121.43, 20338.19, 14613.12, 0.000, 0.000, 0.000, 13:07:34.426, 1560506854426
143, 13448.60, 11760.24, 18126.91, 14165.66, 21305.75, 22234.60, 20474.55, 14731.56, 0.000, 0.000, 0.000, 13:07:34.427, 1560506854427
144, 13591.00, 11891.26, 18269.33, 14304.47, 21443.17, 22366.21, 20617.38, 14864.25, 0.000, 0.000, 0.000, 13:07:34.427, 1560506854427
145, 13551.28, 11863.10, 18236.14, 14274.07, 21427.72, 22354.83, 20603.93, 14848.75, 0.000, 0.000, 0.000, 13:07:34.427, 1560506854427
146, 13375.35, 11712.00, 18077.80, 14124.02, 21288.18, 22220.43, 20460.03, 14710.26, 0.000, 0.000, 0.000, 13:07:34.427, 1560506854427
147, 13247.92, 11581.47, 17969.39, 14001.29, 21169.98, 22100.71, 20336.58, 14590.30, 0.008, 0.058, -1.034, 13:07:34.427, 1560506854427
148, 13410.98, 11730.28, 18116.85, 14144.25, 21301.61, 22217.30, 20461.05, 14708.30, 0.000, 0.000, 0.000, 13:07:34.427, 1560506854427
149, 13559.35, 11892.22, 18257.91, 14281.78, 21439.10, 22352.15, 20593.35, 14841.49, 0.000, 0.000, 0.000, 13:07:34.427, 1560506854427
150, 13537.67, 11864.26, 18239.85, 14272.88, 21432.37, 22343.76, 20576.39, 14829.40, 0.000, 0.000, 0.000, 13:07:34.427, 1560506854427
151, 13397.05, 11700.60, 18100.29, 14138.13, 21302.31, 22222.24, 20438.21, 14701.41, 0.000, 0.000, 0.000, 13:07:34.427, 1560506854427
152, 13262.54, 11573.13, 17950.46, 13995.75, 21171.30, 22096.78, 20303.14, 14572.67, 0.000, 0.000, 0.000, 13:07:34.427, 1560506854427
153, 13399.13, 11728.09, 18095.32, 14134.15, 21294.19, 22212.22, 20427.39, 14688.25, 0.000, 0.000, 0.000, 13:07:34.427, 1560506854427
154, 13551.13, 11862.56, 18244.70, 14273.20, 21426.56, 22341.93, 20563.04, 14822.58, 0.000, 0.000, 0.000, 13:07:34.427, 1560506854427
155, 13528.21, 11840.03, 18219.49, 14254.82, 21410.13, 22332.43, 20548.94, 14813.53, 0.000, 0.000, 0.000, 13:07:34.427, 1560506854427
156, 13373.67, 11707.66, 18082.31, 14136.70, 21286.97, 22221.88, 20423.41, 14696.43, 0.000, 0.000, 0.000, 13:07:34.428, 1560506854428
157, 13245.84, 11578.49, 17965.06, 13998.50, 21154.16, 22095.39, 20300.93, 14572.42, 0.010, 0.050, -1.030, 13:07:34.428, 1560506854428
158, 13398.71, 11721.14, 18120.89, 14130.01, 21273.92, 22203.71, 20426.77, 14687.29, 0.000, 0.000, 0.000, 13:07:34.428, 1560506854428
159, 13538.76, 11862.32, 18252.88, 14271.16, 21416.93, 22338.29, 20571.54, 14823.56, 0.000, 0.000, 0.000, 13:07:34.428, 1560506854428
160, 13515.16, 11840.59, 18208.56, 14253.24, 21407.79, 22330.69, 20558.78, 14815.67, 0.000, 0.000, 0.000, 13:07:34.428, 1560506854428
161, 13375.28, 11692.71, 18070.07, 14115.37, 21280.00, 22206.55, 20426.90, 14692.72, 0.000, 0.000, 0.000, 13:07:34.428, 1560506854428
162, 13250.14, 11555.96, 17939.24, 13993.29, 21151.01, 22081.71, 20299.43, 14570.07, 0.000, 0.000, 0.000, 13:07:34.428, 1560506854428
163, 13394.86, 11706.46, 18104.49, 14130.50, 21266.30, 22191.46, 20428.51, 14689.57, 0.000, 0.000, 0.000, 13:07:34.428, 1560506854428
164, 13544.98, 11868.91, 18253.39, 14270.54, 21408.28, 22331.58, 20571.16, 14829.47, 0.000, 0.000, 0.000, 13:07:34.428, 1560506854428
165, 13508.48, 11848.68, 18209.70, 14251.11, 21396.56, 22320.59, 20553.41, 14814.60, 0.000, 0.000, 0.000, 13:07:34.428, 1560506854428
166, 13373.50, 11686.03, 18060.79, 14121.27, 21279.62, 22209.45, 20426.68, 14692.20, 0.000, 0.000, 0.000, 13:07:34.429, 1560506854429
167, 13256.73, 11550.22, 17942.44, 13994.18, 21151.97, 22082.18, 20294.62, 14558.79, 0.012, 0.054, -1.038, 13:07:34.429, 1560506854429
168, 13393.48, 11704.00, 18092.33, 14124.78, 21271.44, 22193.07, 20427.17, 14687.08, 0.000, 0.000, 0.000, 13:07:34.429, 1560506854429
169, 13517.78, 11844.75, 18229.77, 14259.16, 21410.02, 22326.91, 20568.48, 14823.30, 0.000, 0.000, 0.000, 13:07:34.429, 1560506854429
170, 13514.62, 11819.02, 18215.08, 14244.74, 21400.07, 22327.38, 20557.99, 14819.54, 0.000, 0.000, 0.000, 13:07:34.429, 1560506854429
171, 13381.07, 11697.25, 18088.35, 14122.21, 21288.20, 22224.32, 20434.72, 14705.93, 0.000, 0.000, 0.000, 13:07:34.429, 1560506854429
172, 13240.17, 11560.19, 17946.51, 13982.40, 21153.09, 22096.11, 20288.83, 14568.22, 0.000, 0.000, 0.000, 13:07:34.432, 1560506854432
173, 13359.21, 11689.81, 18080.19, 14108.55, 21262.45, 22199.75, 20395.83, 14669.07, 0.000, 0.000, 0.000, 13:07:34.432, 1560506854432
174, 13507.85, 11848.95, 18220.40, 14267.12, 21406.29, 22339.43, 20531.26, 14804.19, 0.000, 0.000, 0.000, 13:07:34.432, 1560506854432
175, 13498.31, 11827.94, 18209.14, 14259.85, 21399.76, 22331.83, 20511.17, 14788.76, 0.000, 0.000, 0.000, 13:07:34.432, 1560506854432
176, 13374.14, 11684.84, 18082.78, 14122.93, 21277.59, 22214.30, 20379.72, 14663.62, 0.000, 0.000, 0.000, 13:07:34.432, 1560506854432
177, 13229.08, 11561.46, 17940.27, 13995.57, 21147.68, 22088.02, 20246.39, 14534.24, 0.008, 0.054, -1.038, 13:07:34.432, 1560506854432
178, 13374.95, 11691.59, 18071.03, 14136.54, 21261.94, 22197.43, 20370.75, 14649.09, 0.000, 0.000, 0.000, 13:07:34.432, 1560506854432
179, 13536.39, 11838.29, 18233.46, 14279.03, 21410.06, 22338.13, 20524.44, 14795.65, 0.000, 0.000, 0.000, 13:07:34.432, 1560506854432
180, 13498.80, 11826.17, 18207.13, 14242.40, 21393.37, 22321.75, 20506.96, 14782.97, 0.000, 0.000, 0.000, 13:07:34.433, 1560506854433
181, 13350.65, 11684.24, 18068.90, 14109.49, 21268.20, 22203.87, 20379.74, 14662.50, 0.000, 0.000, 0.000, 13:07:34.433, 1560506854433
182, 13229.68, 11539.54, 17936.56, 13974.94, 21134.74, 22078.25, 20249.72, 14535.07, 0.000, 0.000, 0.000, 13:07:34.433, 1560506854433
183, 13377.03, 11680.04, 18065.66, 14111.84, 21253.07, 22191.32, 20376.36, 14652.39, 0.000, 0.000, 0.000, 13:07:34.433, 1560506854433
184, 13508.88, 11834.80, 18224.20, 14265.55, 21397.59, 22334.38, 20521.11, 14794.82, 0.000, 0.000, 0.000, 13:07:34.433, 1560506854433
185, 13481.10, 11812.47, 18227.31, 14251.92, 21390.69, 22328.68, 20509.49, 14786.44, 0.000, 0.000, 0.000, 13:07:34.433, 1560506854433
186, 13357.13, 11686.72, 18082.47, 14133.72, 21278.73, 22220.65, 20402.92, 14681.14, 0.000, 0.000, 0.000, 13:07:34.434, 1560506854434
187, 13225.93, 11542.64, 17918.46, 13975.74, 21126.78, 22068.19, 20248.06, 14532.32, 0.006, 0.058, -1.034, 13:07:34.434, 1560506854434
188, 13363.35, 11692.93, 18064.54, 14094.16, 21247.21, 22177.62, 20371.56, 14646.76, 0.000, 0.000, 0.000, 13:07:34.434, 1560506854434
189, 13504.12, 11836.34, 18217.30, 14262.85, 21405.35, 22330.93, 20525.83, 14798.58, 0.000, 0.000, 0.000, 13:07:34.434, 1560506854434
190, 13485.88, 11810.93, 18206.54, 14261.93, 21406.53, 22336.75, 20517.25, 14793.57, 0.000, 0.000, 0.000, 13:07:34.434, 1560506854434
191, 13350.90, 11660.66, 18062.40, 14126.48, 21282.26, 22221.86, 20389.95, 14679.98, 0.000, 0.000, 0.000, 13:07:34.434, 1560506854434
192, 13227.61, 11528.29, 17927.37, 13984.32, 21151.70, 22096.06, 20266.08, 14562.74, 0.000, 0.000, 0.000, 13:07:34.434, 1560506854434
193, 13363.66, 11686.07, 18082.09, 14116.69, 21266.32, 22199.28, 20388.99, 14675.89, 0.000, 0.000, 0.000, 13:07:34.434, 1560506854434
194, 13500.52, 11836.86, 18239.11, 14273.67, 21411.99, 22334.46, 20532.56, 14814.15, 0.000, 0.000, 0.000, 13:07:34.434, 1560506854434
195, 13465.09, 11795.15, 18193.31, 14241.23, 21380.85, 22305.63, 20490.45, 14775.78, 0.000, 0.000, 0.000, 13:07:34.434, 1560506854434
196, 13347.70, 11666.36, 18051.74, 14108.98, 21256.46, 22188.08, 20357.59, 14649.02, 0.000, 0.000, 0.000, 13:07:34.434, 1560506854434
197, 13210.08, 11544.76, 17927.30, 13975.58, 21126.89, 22064.93, 20229.76, 14522.24, 0.016, 0.060, -1.032, 13:07:34.434, 1560506854434
198, 13330.65, 11680.35, 18077.33, 14090.36, 21232.12, 22167.10, 20341.41, 14624.43, 0.000, 0.000, 0.000, 13:07:34.434, 1560506854434
199, 13482.77, 11812.43, 18208.74, 14234.13, 21371.35, 22300.67, 20477.08, 14754.94, 0.000, 0.000, 0.000, 13:07:34.434, 1560506854434
200, 13484.11, 11799.89, 18186.96, 14229.70, 21367.64, 22297.70, 20467.20, 14747.32, 0.000, 0.000, 0.000, 13:07:34.434, 1560506854434
201, 13334.78, 11647.14, 18046.06, 14103.77, 21251.57, 22184.06, 20342.23, 14631.07, 0.000, 0.000, 0.000, 13:07:34.434, 1560506854434
202, 13183.97, 11494.47, 17903.34, 13956.34, 21113.03, 22048.79, 20207.32, 14499.93, 0.000, 0.000, 0.000, 13:07:34.434, 1560506854434
203, 13316.19, 11617.34, 18036.94, 14066.49, 21216.63, 22145.19, 20330.54, 14608.83, 0.000, 0.000, 0.000, 13:07:34.434, 1560506854434
204, 13460.96, 11770.81, 18187.26, 14226.66, 21361.18, 22286.50, 20475.90, 14751.17, 0.000, 0.000, 0.000, 13:07:34.434, 1560506854434
205, 13431.34, 11760.91, 18160.28, 14217.12, 21350.10, 22279.01, 20463.04, 14744.28, 0.000, 0.000, 0.000, 13:07:34.434, 1560506854434
206, 13292.72, 11632.25, 18020.40, 14077.64, 21232.99, 22169.46, 20342.52, 14631.79, 0.000, 0.000, 0.000, 13:07:34.434, 1560506854434
207, 13157.49, 11492.84, 17871.94, 13930.41, 21090.32, 22026.75, 20199.45, 14492.85, 0.010, 0.058, -1.038, 13:07:34.435, 1560506854435
208, 13305.39, 11637.97, 18039.47, 14055.02, 21205.84, 22135.45, 20327.10, 14611.58, 0.000, 0.000, 0.000, 13:07:34.435, 1560506854435
209, 13455.64, 11768.26, 18199.33, 14201.58, 21354.77, 22284.67, 20476.63, 14756.26, 0.000, 0.000, 0.000, 13:07:34.435, 1560506854435
210, 13424.08, 11728.67, 18149.08, 14187.90, 21346.09, 22278.25, 20460.76, 14745.36, 0.000, 0.000, 0.000, 13:07:34.435, 1560506854435
211, 13300.76, 11612.92, 18025.63, 14077.60, 21240.10, 22180.13, 20357.72, 14647.30, 0.000, 0.000, 0.000, 13:07:34.435, 1560506854435
212, 13136.37, 11460.45, 17872.07, 13924.24, 21092.29, 22033.41, 20211.45, 14504.90, 0.000, 0.000, 0.000, 13:07:34.435, 1560506854435
213, 13278.99, 11579.86, 18006.59, 14035.51, 21193.10, 22130.15, 20322.72, 14607.85, 0.000, 0.000, 0.000, 13:07:34.435, 1560506854435
214, 13438.18, 11747.58, 18163.88, 14197.20, 21348.11, 22273.85, 20480.19, 14759.28, 0.000, 0.000, 0.000, 13:07:34.435, 1560506854435
215, 13407.65, 11739.45, 18144.01, 14196.69, 21346.90, 22269.85, 20478.85, 14761.43, 0.000, 0.000, 0.000, 13:07:34.435, 1560506854435
216, 13271.86, 11618.19, 18013.40, 14077.84, 21239.61, 22170.09, 20362.75, 14655.88, 0.006, 0.054, -1.036, 13:07:34.435, 1560506854435
217, 13124.25, 11456.77, 17860.68, 13912.71, 21087.42, 22022.14, 20202.65, 14501.54, 0.000, 0.000, 0.000, 13:07:34.435, 1560506854435
218, 13280.89, 11591.12, 18000.51, 14022.08, 21192.78, 22120.72, 20312.88, 14601.30, 0.000, 0.000, 0.000, 13:07:34.435, 1560506854435
219, 13447.03, 11745.57, 18164.55, 14183.99, 21341.47, 22263.12, 20454.59, 14737.49, 0.000, 0.000, 0.000, 13:07:34.435, 1560506854435
220, 13406.60, 11720.54, 18165.33, 14190.14, 21336.62, 22260.12, 20438.17, 14724.23, 0.000, 0.000, 0.000, 13:07:34.435, 1560506854435
221, 13261.13, 11594.61, 18028.11, 14068.68, 21221.15, 22148.23, 20313.91, 14603.40, 0.000, 0.000, 0.000, 13:07:34.435, 1560506854435
222, 13118.64, 11455.94, 17857.19, 13907.01, 21076.42, 22007.82, 20163.75, 14456.77, 0.000, 0.000, 0.000, 13:07:34.435, 1560506854435
223, 13265.11, 11559.45, 17992.62, 14020.53, 21182.32, 22108.74, 20276.32, 14560.84, 0.000, 0.000, 0.000, 13:07:34.436, 1560506854436
224, 13421.24, 11717.10, 18169.62, 14182.49, 21330.85, 22254.98, 20432.02, 14710.80, 0.000, 0.000, 0.000, 13:07:34.436, 1560506854436
225, 13384.54, 11719.18, 18130.86, 14178.02, 21322.47, 22248.30, 20421.54, 14704.09, 0.000, 0.000, 0.000, 13:07:34.436, 1560506854436
226, 13254.99, 11580.89, 17985.53, 14039.09, 21204.34, 22139.34, 20295.16, 14588.63, 0.006, 0.052, -1.042, 13:07:34.904, 1560506854904
227, 13117.48, 11430.73, 17854.33, 13893.58, 21066.52, 22008.94, 20162.59, 14457.62, 0.000, 0.000, 0.000, 13:07:34.904, 1560506854904
228, 13254.36, 11557.51, 17983.83, 14013.58, 21171.21, 22106.54, 20272.83, 14562.09, 0.000, 0.000, 0.000, 13:07:34.904, 1560506854904
229, 13403.04, 11715.49, 18145.17, 14168.52, 21320.19, 22252.79, 20429.47, 14714.00, 0.000, 0.000, 0.000, 13:07:34.904, 1560506854904
230, 13370.88, 11699.04, 18119.69, 14162.42, 21315.38, 22249.42, 20422.30, 14710.15, 0.000, 0.000, 0.000, 13:07:34.904, 1560506854904
231, 13243.23, 11574.16, 17989.26, 14042.44, 21203.00, 22143.63, 20308.46, 14606.01, 0.000, 0.000, 0.000, 13:07:34.904, 1560506854904
232, 13079.70, 11427.42, 17837.09, 13888.10, 21053.69, 21995.68, 20164.51, 14465.69, 0.000, 0.000, 0.000, 13:07:34.904, 1560506854904
233, 13208.79, 11524.63, 17963.52, 14005.18, 21152.77, 22088.87, 20276.96, 14569.69, 0.000, 0.000, 0.000, 13:07:34.904, 1560506854904
234, 13374.72, 11676.42, 18127.46, 14152.27, 21311.05, 22237.21, 20435.39, 14722.60, 0.000, 0.000, 0.000, 13:07:34.904, 1560506854904
235, 13351.84, 11671.14, 18103.86, 14134.88, 21302.64, 22230.80, 20421.04, 14713.44, 0.000, 0.000, 0.000, 13:07:34.904, 1560506854904
236, 13227.54, 11546.84, 17966.40, 14024.51, 21200.21, 22128.72, 20309.44, 14612.30, 0.010, 0.052, -1.038, 13:07:34.904, 1560506854904
237, 13079.30, 11385.78, 17815.14, 13866.15, 21047.16, 21977.02, 20154.46, 14464.22, 0.000, 0.000, 0.000, 13:07:34.905, 1560506854905
238, 13203.98, 11513.83, 17944.03, 13983.05, 21138.71, 22062.02, 20256.13, 14556.39, 0.000, 0.000, 0.000, 13:07:34.905, 1560506854905
239, 13359.50, 11682.54, 18112.42, 14147.56, 21297.19, 22216.20, 20413.67, 14708.86, 0.000, 0.000, 0.000, 13:07:34.905, 1560506854905
240, 13346.76, 11671.95, 18102.90, 14143.27, 21303.76, 22221.61, 20404.66, 14706.75, 0.000, 0.000, 0.000, 13:07:34.905, 1560506854905
241, 13219.02, 11551.72, 17980.37, 14016.87, 21196.67, 22115.80, 20284.86, 14594.55, 0.000, 0.000, 0.000, 13:07:34.905, 1560506854905
242, 13061.22, 11409.92, 17811.48, 13867.89, 21044.12, 21969.10, 20125.38, 14439.88, 0.000, 0.000, 0.000, 13:07:34.905, 1560506854905
243, 13189.61, 11509.23, 17950.04, 13990.09, 21140.90, 22064.30, 20229.33, 14532.52, 0.000, 0.000, 0.000, 13:07:34.905, 1560506854905
244, 13351.95, 11657.53, 18118.55, 14142.44, 21289.30, 22208.49, 20383.18, 14675.28, 0.000, 0.000, 0.000, 13:07:34.905, 1560506854905
245, 13338.04, 11660.97, 18102.21, 14134.75, 21290.71, 22213.86, 20380.41, 14674.05, 0.000, 0.000, 0.000, 13:07:34.905, 1560506854905
246, 13208.41, 11533.54, 17958.15, 14017.90, 21178.57, 22107.69, 20263.98, 14562.47, 0.008, 0.052, -1.038, 13:07:34.905, 1560506854905
247, 13063.43, 11372.59, 17808.17, 13861.25, 21036.86, 21967.07, 20116.17, 14419.11, 0.000, 0.000, 0.000, 13:07:34.905, 1560506854905
248, 13194.59, 11505.63, 17948.07, 13964.92, 21133.28, 22060.68, 20221.00, 14518.55, 0.000, 0.000, 0.000, 13:07:34.905, 1560506854905
249, 13368.53, 11681.98, 18112.45, 14145.48, 21294.26, 22223.02, 20396.17, 14690.71, 0.000, 0.000, 0.000, 13:07:34.905, 1560506854905
250, 13356.98, 11680.82, 18102.88, 14158.40, 21305.19, 22246.89, 20409.38, 14710.82, 0.000, 0.000, 0.000, 13:07:34.905, 1560506854905
251, 13211.53, 11551.87, 17979.70, 14037.32, 21196.20, 22151.20, 20296.72, 14606.82, 0.000, 0.000, 0.000, 13:07:34.905, 1560506854905
252, 13065.62, 11394.72, 17824.02, 13894.47, 21059.43, 22023.13, 20163.13, 14483.24, 0.000, 0.000, 0.000, 13:07:34.905, 1560506854905
253, 13184.00, 11524.22, 17953.12, 14003.84, 21156.17, 22111.39, 20272.49, 14586.08, 0.000, 0.000, 0.000, 13:07:34.905, 1560506854905
254, 13353.67, 11699.89, 18126.21, 14172.62, 21317.86, 22261.40, 20433.94, 14741.74, 0.000, 0.000, 0.000, 13:07:34.905, 1560506854905
255, 13362.54, 11685.60, 18126.55, 14169.82, 21321.82, 22260.10, 20439.57, 14747.86, 0.000, 0.000, 0.000, 13:07:34.905, 1560506854905
0, 13245.62, 11558.85, 17994.63, 14047.04, 21215.78, 22153.89, 20328.15, 14641.82, 0.006, 0.052, -1.034, 13:07:34.905, 1560506854905
1, 13088.76, 11383.05, 17844.18, 13885.55, 21055.14, 21997.22, 20167.11, 14484.80, 0.000, 0.000, 0.000, 13:07:34.906, 1560506854906
2, 13191.02, 11498.47, 17957.93, 13977.80, 21141.75, 22071.59, 20262.39, 14566.90, 0.000, 0.000, 0.000, 13:07:34.906, 1560506854906
3, 13352.28, 11662.13, 18101.87, 14145.50, 21303.18, 22223.96, 20422.77, 14715.40, 0.000, 0.000, 0.000, 13:07:34.906, 1560506854906
4, 13334.76, 11672.50, 18100.33, 14148.79, 21308.99, 22239.43, 20427.95, 14724.39, 0.000, 0.000, 0.000, 13:07:34.906, 1560506854906
5, 13203.62, 11554.91, 17978.96, 14034.30, 21200.09, 22139.11, 20309.11, 14614.96, 0.000, 0.000, 0.000, 13:07:34.906, 1560506854906
6, 13057.62, 11378.29, 17821.51, 13879.94, 21050.65, 21988.88, 20145.58, 14458.92, 0.000, 0.000, 0.000, 13:07:34.906, 1560506854906
7, 13154.69, 11473.78, 17935.69, 13975.56, 21130.06, 22066.71, 20228.39, 14537.06, 0.000, 0.000, 0.000, 13:07:34.906, 1560506854906
8, 13319.94, 11648.88, 18114.75, 14142.31, 21292.81, 22223.87, 20386.09, 14692.67, 0.000, 0.000, 0.000, 13:07:34.906, 1560506854906
9, 13326.65, 11654.67, 18090.45, 14135.15, 21290.86, 22219.18, 20372.23, 14684.67, 0.000, 0.000, 0.000, 13:07:34.906, 1560506854906
10, 13231.36, 11529.75, 17975.34, 14026.26, 21185.72, 22123.51, 20261.70, 14584.60, 0.004, 0.054, -1.030, 13:07:34.906, 1560506854906
11, 13069.69, 11377.95, 17833.58, 13868.23, 21031.61, 21977.51, 20106.29, 14437.06, 0.000, 0.000, 0.000, 13:07:34.906, 1560506854906
12, 13166.56, 11500.53, 17938.32, 13965.33, 21123.09, 22057.44, 20202.98, 14522.24, 0.000, 0.000, 0.000, 13:07:34.906, 1560506854906
13, 13330.98, 11650.33, 18089.33, 14147.94, 21289.46, 22220.56, 20369.39, 14683.71, 0.000, 0.000, 0.000, 13:07:34.906, 1560506854906
14, 13321.24, 11632.12, 18076.53, 14144.67, 21294.91, 22226.26, 20368.52, 14684.38, 0.000, 0.000, 0.000, 13:07:34.906, 1560506854906
15, 13180.24, 11508.60, 17966.58, 14012.49, 21186.23, 22125.12, 20253.03, 14575.82, 0.000, 0.000, 0.000, 13:07:34.906, 1560506854906
16, 13027.24, 11365.21, 17810.32, 13863.85, 21040.68, 21991.77, 20109.84, 14437.86, 0.000, 0.000, 0.000, 13:07:34.906, 1560506854906
17, 13163.86, 11487.03, 17944.72, 13973.80, 21130.00, 22086.90, 20217.04, 14539.23, 0.000, 0.000, 0.000, 13:07:34.906, 1560506854906
18, 13336.35, 11654.71, 18108.24, 14155.27, 21293.75, 22246.98, 20388.90, 14702.62, 0.000, 0.000, 0.000, 13:07:34.906, 1560506854906
19, 13319.81, 11644.86, 18093.74, 14150.96, 21299.54, 22247.41, 20389.64, 14706.29, 0.000, 0.000, 0.000, 13:07:34.906, 1560506854906
20, 13213.12, 11535.24, 17988.93, 14046.60, 21206.31, 22153.57, 20289.48, 14614.80, 0.006, 0.054, -1.026, 13:07:34.906, 1560506854906
21, 13065.89, 11375.23, 17832.18, 13880.46, 21055.25, 21997.02, 20135.84, 14465.47, 0.000, 0.000, 0.000, 13:07:34.906, 1560506854906
22, 13173.58, 11483.66, 17937.45, 13975.41, 21135.29, 22065.37, 20223.75, 14543.79, 0.000, 0.000, 0.000, 13:07:34.907, 1560506854907
23, 13347.81, 11653.33, 18109.00, 14143.27, 21289.70, 22215.38, 20387.72, 14701.17, 0.000, 0.000, 0.000, 13:07:34.907, 1560506854907
24, 13323.92, 11640.18, 18094.14, 14139.20, 21290.24, 22218.71, 20385.77, 14703.07, 0.000, 0.000, 0.000, 13:07:34.907, 1560506854907
25, 13185.83, 11519.02, 17968.25, 14020.51, 21188.51, 22121.74, 20276.29, 14600.34, 0.000, 0.000, 0.000, 13:07:34.907, 1560506854907
26, 13026.26, 11356.50, 17811.48, 13872.97, 21040.66, 21977.82, 20126.87, 14454.49, 0.000, 0.000, 0.000, 13:07:34.907, 1560506854907
27, 13141.35, 11471.43, 17926.03, 13980.32, 21126.38, 22059.79, 20213.38, 14535.23, 0.000, 0.000, 0.000, 13:07:34.907, 1560506854907
28, 13325.35, 11662.60, 18114.21, 14157.68, 21301.03, 22230.13, 20380.83, 14700.74, 0.000, 0.000, 0.000, 13:07:34.907, 1560506854907
29, 13334.65, 11660.93, 18118.68, 14157.10, 21318.38, 22249.08, 20387.09, 14713.46, 0.000, 0.000, 0.000, 13:07:34.907, 1560506854907
30, 13211.15, 11541.66, 17995.14, 14047.87, 21200.36, 22140.61, 20261.50, 14598.80, 0.012, 0.058, -1.030, 13:07:34.907, 1560506854907
31, 13045.68, 11374.87, 17831.91, 13881.17, 21043.43, 21984.66, 20095.36, 14438.51, 0.000, 0.000, 0.000, 13:07:34.907, 1560506854907
32, 13168.26, 11474.80, 17942.88, 13981.60, 21125.95, 22062.31, 20182.46, 14517.05, 0.000, 0.000, 0.000, 13:07:34.907, 1560506854907
33, 13343.41, 11645.79, 18100.62, 14138.84, 21288.16, 22209.86, 20340.51, 14666.21, 0.000, 0.000, 0.000, 13:07:34.907, 1560506854907
34, 13323.20, 11633.17, 18094.36, 14120.58, 21290.82, 22207.60, 20335.26, 14662.77, 0.000, 0.000, 0.000, 13:07:34.907, 1560506854907
35, 13203.80, 11522.41, 17979.74, 14018.52, 21189.54, 22115.46, 20233.33, 14568.69, 0.000, 0.000, 0.000, 13:07:34.907, 1560506854907
36, 13039.90, 11377.84, 17809.56, 13870.80, 21040.66, 21978.74, 20087.06, 14430.24, 0.000, 0.000, 0.000, 13:07:34.907, 1560506854907
37, 13119.71, 11465.35, 17917.54, 13965.17, 21121.57, 22062.74, 20178.71, 14516.72, 0.000, 0.000, 0.000, 13:07:34.907, 1560506854907
38, 13298.97, 11616.13, 18090.58, 14134.04, 21285.21, 22227.04, 20348.20, 14681.54, 0.000, 0.000, 0.000, 13:07:34.907, 1560506854907
39, 13319.47, 11626.73, 18098.68, 14154.87, 21301.46, 22251.36, 20364.09, 14700.88, 0.000, 0.000, 0.000, 13:07:34.907, 1560506854907
40, 13190.08, 11505.76, 17982.85, 14034.91, 21195.24, 22150.20, 20255.04, 14598.97, 0.012, 0.056, -1.030, 13:07:34.907, 1560506854907
41, 13025.68, 11342.68, 17814.65, 13869.10, 21034.98, 21991.05, 20093.77, 14440.39, 0.000, 0.000, 0.000, 13:07:34.908, 1560506854908
42, 13136.70, 11454.38, 17917.36, 13960.14, 21109.75, 22056.19, 20182.31, 14516.18, 0.000, 0.000, 0.000, 13:07:34.908, 1560506854908
43, 13315.69, 11648.57, 18105.65, 14143.47, 21283.08, 22213.07, 20362.73, 14684.42, 0.000, 0.000, 0.000, 13:07:34.908, 1560506854908
44, 13322.11, 11643.49, 18092.53, 14136.94, 21297.72, 22218.82, 20373.93, 14693.12, 0.000, 0.000, 0.000, 13:07:34.908, 1560506854908
45, 13200.34, 11503.50, 17945.34, 14006.23, 21180.87, 22104.62, 20257.59, 14579.24, 0.000, 0.000, 0.000, 13:07:34.908, 1560506854908
46, 13024.45, 11353.55, 17800.46, 13851.22, 21030.76, 21958.49, 20106.09, 14428.70, 0.000, 0.000, 0.000, 13:07:34.908, 1560506854908
47, 13122.49, 11443.78, 17923.37, 13938.06, 21104.70, 22028.02, 20185.37, 14496.56, 0.000, 0.000, 0.000, 13:07:34.908, 1560506854908
48, 13307.98, 11627.44, 18098.01, 14130.26, 21279.17, 22196.09, 20360.45, 14664.67, 0.000, 0.000, 0.000, 13:07:34.908, 1560506854908
49, 13311.78, 11631.47, 18092.35, 14155.99, 21294.91, 22216.38, 20365.57, 14677.47, 0.000, 0.000, 0.000, 13:07:34.908, 1560506854908
50, 13185.54, 11495.26, 17975.52, 14036.63, 21186.82, 22116.69, 20242.70, 14568.33, 0.012, 0.054, -1.038, 13:07:34.908, 1560506854908
51, 13017.61, 11338.88, 17801.44, 13863.16, 21030.53, 21967.94, 20076.72, 14415.71, 0.000, 0.000, 0.000, 13:07:34.908, 1560506854908
52, 13117.81, 11440.16, 17914.39, 13961.53, 21107.20, 22038.10, 20149.92, 14488.91, 0.000, 0.000, 0.000, 13:07:34.908, 1560506854908
53, 13309.93, 11635.89, 18114.37, 14149.39, 21284.52, 22212.78, 20326.50, 14666.83, 0.000, 0.000, 0.000, 13:07:34.908, 1560506854908
54, 13319.94, 11648.23, 18115.06, 14158.33, 21299.63, 22231.69, 20337.58, 14687.02, 0.000, 0.000, 0.000, 13:07:34.908, 1560506854908
55, 13208.23, 11530.59, 17986.43, 14038.15, 21191.76, 22134.24, 20225.20, 14583.42, 0.000, 0.000, 0.000, 13:07:34.908, 1560506854908
56, 13037.17, 11345.37, 17805.64, 13865.88, 21029.77, 21976.97, 20057.31, 14423.45, 0.000, 0.000, 0.000, 13:07:34.908, 1560506854908
57, 13122.33, 11448.05, 17905.85, 13956.92, 21106.91, 22054.22, 20144.35, 14504.78, 0.000, 0.000, 0.000, 13:07:34.909, 1560506854909
58, 13299.67, 11626.53, 18099.73, 14141.03, 21282.84, 22227.24, 20337.47, 14686.71, 0.000, 0.000, 0.000, 13:07:34.909, 1560506854909
59, 13307.80, 11634.71, 18110.23, 14153.77, 21301.19, 22247.99, 20359.78, 14709.71, 0.000, 0.000, 0.000, 13:07:34.909, 1560506854909
60, 13203.35, 11520.11, 17997.51, 14057.12, 21205.68, 22164.01, 20262.82, 14620.88, 0.012, 0.054, -1.042, 13:07:34.909, 1560506854909
61, 13048.93, 11351.69, 17819.30, 13884.46, 21047.10, 22016.82, 20107.00, 14468.53, 0.000, 0.000, 0.000, 13:07:34.909, 1560506854909
62, 13131.78, 11450.60, 17908.57, 13967.40, 21108.79, 22069.46, 20178.10, 14529.15, 0.000, 0.000, 0.000, 13:07:34.909, 1560506854909
63, 13295.60, 11615.73, 18096.44, 14144.97, 21272.80, 22224.47, 20343.86, 14688.74, 0.000, 0.000, 0.000, 13:07:34.909, 1560506854909
64, 13283.06, 11611.17, 18095.95, 14152.97, 21294.48, 22235.25, 20355.51, 14699.24, 0.000, 0.000, 0.000, 13:07:34.909, 1560506854909
65, 13181.25, 11508.00, 17992.68, 14042.95, 21198.77, 22139.04, 20253.12, 14600.43, 0.000, 0.000, 0.000, 13:07:34.909, 1560506854909
66, 13023.22, 11341.92, 17820.15, 13866.11, 21036.10, 21980.15, 20088.65, 14437.13, 0.000, 0.000, 0.000, 13:07:34.909, 1560506854909
67, 13108.02, 11434.64, 17905.96, 13957.34, 21112.03, 22043.09, 20173.61, 14504.67, 0.000, 0.000, 0.000, 13:07:34.909, 1560506854909
68, 13287.35, 11611.49, 18086.43, 14135.82, 21280.60, 22200.20, 20348.13, 14664.15, 0.000, 0.000, 0.000, 13:07:34.909, 1560506854909
69, 13291.22, 11618.01, 18081.94, 14126.95, 21289.99, 22208.94, 20352.29, 14668.47, 0.010, 0.052, -1.030, 13:07:34.909, 1560506854909
70, 13177.78, 11495.19, 17973.84, 14028.49, 21196.92, 22120.60, 20254.14, 14575.42, 0.000, 0.000, 0.000, 13:07:34.909, 1560506854909
71, 13015.35, 11311.93, 17798.83, 13858.13, 21027.25, 21955.49, 20077.05, 14405.01, 0.000, 0.000, 0.000, 13:07:34.909, 1560506854909
72, 13098.30, 11404.73, 17884.81, 13928.24, 21089.12, 22014.10, 20141.65, 14463.90, 0.000, 0.000, 0.000, 13:07:34.909, 1560506854909
73, 13274.43, 11592.78, 18072.66, 14120.69, 21269.32, 22192.22, 20318.61, 14642.16, 0.000, 0.000, 0.000, 13:07:34.909, 1560506854909
74, 13255.34, 11586.79, 18068.39, 14115.80, 21271.98, 22199.93, 20309.71, 14647.30, 0.000, 0.000, 0.000, 13:07:34.909, 1560506854909
75, 13151.30, 11477.69, 17969.42, 14008.46, 21165.27, 22104.85, 20195.22, 14548.66, 0.000, 0.000, 0.000, 13:07:34.909, 1560506854909
76, 13013.81, 11326.25, 17807.16, 13859.15, 21023.29, 21967.27, 20051.50, 14413.32, 0.000, 0.000, 0.000, 13:07:34.909, 1560506854909
77, 13083.66, 11410.81, 17884.90, 13931.31, 21087.17, 22023.20, 20117.33, 14475.57, 0.000, 0.000, 0.000, 13:07:34.910, 1560506854910
78, 13251.03, 11602.63, 18066.65, 14119.51, 21249.71, 22187.32, 20286.69, 14642.25, 0.000, 0.000, 0.000, 13:07:34.910, 1560506854910
79, 13286.35, 11606.28, 18099.12, 14133.39, 21273.79, 22218.68, 20309.31, 14670.66, 0.016, 0.054, -1.026, 13:07:34.910, 1560506854910
80, 13187.35, 11502.16, 17988.86, 14027.08, 21184.98, 22138.02, 20217.69, 14587.55, 0.000, 0.000, 0.000, 13:07:34.910, 1560506854910
81, 13016.14, 11357.43, 17795.16, 13879.74, 21036.63, 21995.88, 20069.07, 14447.81, 0.000, 0.000, 0.000, 13:07:34.910, 1560506854910
82, 13098.68, 11413.05, 17890.76, 13957.50, 21102.26, 22056.48, 20150.28, 14519.22, 0.000, 0.000, 0.000, 13:07:34.910, 1560506854910
83, 13252.75, 11572.35, 18087.39, 14128.51, 21272.51, 22217.50, 20331.01, 14689.75, 0.000, 0.000, 0.000, 13:07:34.910, 1560506854910
84, 13261.96, 11588.35, 18083.97, 14124.13, 21288.83, 22229.55, 20347.02, 14706.87, 0.000, 0.000, 0.000, 13:07:34.910, 1560506854910
85, 13170.56, 11481.49, 17961.26, 14016.47, 21190.75, 22131.76, 20242.59, 14606.64, 0.000, 0.000, 0.000, 13:07:34.910, 1560506854910
86, 12997.52, 11306.70, 17792.28, 13850.53, 21028.59, 21971.67, 20075.31, 14444.34, 0.000, 0.000, 0.000, 13:07:34.910, 1560506854910
87, 13076.33, 11383.70, 17872.03, 13922.10, 21082.90, 22016.67, 20132.19, 14491.26, 0.000, 0.000, 0.000, 13:07:34.910, 1560506854910
88, 13246.34, 11569.46, 18056.90, 14108.58, 21251.66, 22178.81, 20308.30, 14653.07, 0.000, 0.000, 0.000, 13:07:34.910, 1560506854910
89, 13243.65, 11583.72, 18080.17, 14116.42, 21273.05, 22197.03, 20321.20, 14665.58, 0.016, 0.054, -1.024, 13:07:34.910, 1560506854910
90, 13139.43, 11468.30, 17959.29, 14006.25, 21179.35, 22103.55, 20214.58, 14563.41, 0.000, 0.000, 0.000, 13:07:35.383, 1560506855383
91, 12989.00, 11306.00, 17775.74, 13852.34, 21021.93, 21954.35, 20050.14, 14403.60, 0.000, 0.000, 0.000, 13:07:35.383, 1560506855383
92, 13073.45, 11381.60, 17858.28, 13916.71, 21071.79, 21999.21, 20110.29, 14452.10, 0.000, 0.000, 0.000, 13:07:35.383, 1560506855383
93, 13258.36, 11577.51, 18067.34, 14097.09, 21252.57, 22172.28, 20297.37, 14627.32, 0.000, 0.000, 0.000, 13:07:35.383, 1560506855383
94, 13256.57, 11581.94, 18067.27, 14102.56, 21265.16, 22188.91, 20304.82, 14639.41, 0.000, 0.000, 0.000, 13:07:35.384, 1560506855384
95, 13140.23, 11468.23, 17954.17, 14005.85, 21164.82, 22098.19, 20196.95, 14542.92, 0.000, 0.000, 0.000, 13:07:35.384, 1560506855384
96, 12980.75, 11300.66, 17790.85, 13853.61, 21010.77, 21951.18, 20034.22, 14391.71, 0.000, 0.000, 0.000, 13:07:35.384, 1560506855384
97, 13056.59, 11375.05, 17876.32, 13925.18, 21068.33, 22010.79, 20091.63, 14449.31, 0.000, 0.000, 0.000, 13:07:35.384, 1560506855384
98, 13241.33, 11560.48, 18062.78, 14108.33, 21242.54, 22187.99, 20270.19, 14628.57, 0.000, 0.000, 0.000, 13:07:35.384, 1560506855384
99, 13267.32, 11587.68, 18083.39, 14131.31, 21273.83, 22224.43, 20300.97, 14668.51, 0.012, 0.054, -1.030, 13:07:35.384, 1560506855384
100, 13163.01, 11499.30, 17975.05, 14038.33, 21183.28, 22146.00, 20216.06, 14588.25, 0.000, 0.000, 0.000, 13:07:35.384, 1560506855384
101, 12984.66, 11326.19, 17796.88, 13870.35, 21019.27, 21990.41, 20050.59, 14430.60, 0.000, 0.000, 0.000, 13:07:35.384, 1560506855384
102, 13080.42, 11408.60, 17888.03, 13938.10, 21077.16, 22045.93, 20123.07, 14495.71, 0.000, 0.000, 0.000, 13:07:35.384, 1560506855384
103, 13264.08, 11590.92, 18071.85, 14129.27, 21256.26, 22215.98, 20301.78, 14669.70, 0.000, 0.000, 0.000, 13:07:35.384, 1560506855384
104, 13279.73, 11592.44, 18088.48, 14151.27, 21288.56, 22245.04, 20332.64, 14702.53, 0.000, 0.000, 0.000, 13:07:35.384, 1560506855384
105, 13178.23, 11500.93, 17978.33, 14043.51, 21206.42, 22160.41, 20244.67, 14619.22, 0.000, 0.000, 0.000, 13:07:35.384, 1560506855384
106, 12997.87, 11333.07, 17796.64, 13871.51, 21037.60, 21993.69, 20072.16, 14454.89, 0.000, 0.000, 0.000, 13:07:35.384, 1560506855384
107, 13072.01, 11383.09, 17891.77, 13941.30, 21085.63, 22035.78, 20124.75, 14502.33, 0.000, 0.000, 0.000, 13:07:35.385, 1560506855385
108, 13257.31, 11573.42, 18084.93, 14137.95, 21268.40, 22203.80, 20307.19, 14674.39, 0.000, 0.000, 0.000, 13:07:35.385, 1560506855385
109, 13267.28, 11583.25, 18096.82, 14147.38, 21293.90, 22224.96, 20326.97, 14693.70, 0.014, 0.054, -1.028, 13:07:35.385, 1560506855385
110, 13164.89, 11473.80, 17992.53, 14030.28, 21194.28, 22130.51, 20222.58, 14591.80, 0.000, 0.000, 0.000, 13:07:35.385, 1560506855385
111, 12982.65, 11307.12, 17811.03, 13851.15, 21013.01, 21955.07, 20034.31, 14404.42, 0.000, 0.000, 0.000, 13:07:35.385, 1560506855385
112, 13053.42, 11397.80, 17887.81, 13913.76, 21063.01, 21998.70, 20084.07, 14445.98, 0.000, 0.000, 0.000, 13:07:35.385, 1560506855385
113, 13232.54, 11564.61, 18048.90, 14090.45, 21239.77, 22162.40, 20261.77, 14611.69, 0.000, 0.000, 0.000, 13:07:35.385, 1560506855385
114, 13232.12, 11549.35, 18048.05, 14104.22, 21260.96, 22184.06, 20277.86, 14626.40, 0.000, 0.000, 0.000, 13:07:35.385, 1560506855385
115, 13123.31, 11439.98, 17941.25, 14009.20, 21169.69, 22102.14, 20177.50, 14531.83, 0.000, 0.000, 0.000, 13:07:35.387, 1560506855387
116, 12942.98, 11257.57, 17765.32, 13832.00, 20999.29, 21940.45, 19999.16, 14363.01, 0.000, 0.000, 0.000, 13:07:35.387, 1560506855387
117, 13022.98, 11330.55, 17840.92, 13891.52, 21047.05, 21984.75, 20053.18, 14411.13, 0.000, 0.000, 0.000, 13:07:35.388, 1560506855388
118, 13206.53, 11527.29, 18034.04, 14085.60, 21230.85, 22161.29, 20240.44, 14594.46, 0.000, 0.000, 0.000, 13:07:35.388, 1560506855388
119, 13205.88, 11551.45, 18037.57, 14098.83, 21252.60, 22185.29, 20258.12, 14617.28, 0.014, 0.048, -1.030, 13:07:35.388, 1560506855388
120, 13114.80, 11451.04, 17943.73, 14006.18, 21163.37, 22103.17, 20164.27, 14532.75, 0.000, 0.000, 0.000, 13:07:35.388, 1560506855388
121, 12953.84, 11283.52, 17789.44, 13838.72, 21010.88, 21953.17, 20005.64, 14384.78, 0.000, 0.000, 0.000, 13:07:35.388, 1560506855388
122, 13023.33, 11331.91, 17851.80, 13891.63, 21049.33, 21985.98, 20050.12, 14426.13, 0.000, 0.000, 0.000, 13:07:35.388, 1560506855388
123, 13209.05, 11522.12, 18059.29, 14089.11, 21219.22, 22155.85, 20229.58, 14602.64, 0.000, 0.000, 0.000, 13:07:35.388, 1560506855388
124, 13233.22, 11547.69, 18059.72, 14115.86, 21253.60, 22191.91, 20261.54, 14641.15, 0.000, 0.000, 0.000, 13:07:35.388, 1560506855388
125, 13137.46, 11455.02, 17966.53, 14020.20, 21180.18, 22120.31, 20182.33, 14570.86, 0.000, 0.000, 0.000, 13:07:35.388, 1560506855388
126, 12961.24, 11271.72, 17775.85, 13838.84, 21009.63, 21950.62, 20008.61, 14403.29, 0.000, 0.000, 0.000, 13:07:35.388, 1560506855388
127, 13022.19, 11342.79, 17848.56, 13906.20, 21058.23, 21996.93, 20068.98, 14458.83, 0.000, 0.000, 0.000, 13:07:35.388, 1560506855388
128, 13201.05, 11529.90, 18047.45, 14092.80, 21235.86, 22164.41, 20255.44, 14633.66, 0.000, 0.000, 0.000, 13:07:35.388, 1560506855388
129, 13221.21, 11546.69, 18059.02, 14108.93, 21261.52, 22186.12, 20278.71, 14654.45, 0.008, 0.050, -1.022, 13:07:35.388, 1560506855388
130, 13112.00, 11434.95, 17947.51, 14011.41, 21171.17, 22101.47, 20187.94, 14566.39, 0.000, 0.000, 0.000, 13:07:35.389, 1560506855389
131, 12932.45, 11257.92, 17775.09, 13838.37, 21007.64, 21951.16, 20023.16, 14408.51, 0.000, 0.000, 0.000, 13:07:35.389, 1560506855389
132, 13006.57, 11322.39, 17833.76, 13885.77, 21039.43, 21979.70, 20063.55, 14438.87, 0.000, 0.000, 0.000, 13:07:35.389, 1560506855389
133, 13204.52, 11523.84, 18026.21, 14069.15, 21212.88, 22143.96, 20245.14, 14607.38, 0.000, 0.000, 0.000, 13:07:35.389, 1560506855389
134, 13208.94, 11535.22, 18039.67, 14091.12, 21236.41, 22166.92, 20256.09, 14624.30, 0.000, 0.000, 0.000, 13:07:35.389, 1560506855389
135, 13102.61, 11420.36, 17941.10, 13993.31, 21152.26, 22084.04, 20162.53, 14532.95, 0.000, 0.000, 0.000, 13:07:35.389, 1560506855389
136, 12938.71, 11241.74, 17772.50, 13828.51, 20996.80, 21938.53, 20000.16, 14377.00, 0.000, 0.000, 0.000, 13:07:35.389, 1560506855389
137, 12996.96, 11302.49, 17818.25, 13872.68, 21029.26, 21970.29, 20040.06, 14407.11, 0.000, 0.000, 0.000, 13:07:35.389, 1560506855389
138, 13181.20, 11505.96, 18023.22, 14057.95, 21200.36, 22141.53, 20216.10, 14577.00, 0.000, 0.000, 0.000, 13:07:35.389, 1560506855389
139, 13189.47, 11514.55, 18030.39, 14078.31, 21224.32, 22167.86, 20236.55, 14601.41, 0.010, 0.052, -1.022, 13:07:35.389, 1560506855389
140, 13079.86, 11404.78, 17925.18, 13983.50, 21132.14, 22078.38, 20137.38, 14510.17, 0.000, 0.000, 0.000, 13:07:35.389, 1560506855389
141, 12899.39, 11232.11, 17743.73, 13809.49, 20963.59, 21908.87, 19955.28, 14339.18, 0.000, 0.000, 0.000, 13:07:35.389, 1560506855389
142, 12973.69, 11295.19, 17815.99, 13857.50, 21000.11, 21942.01, 19998.57, 14376.33, 0.000, 0.000, 0.000, 13:07:35.389, 1560506855389
143, 13181.90, 11487.14, 18011.75, 14040.23, 21173.18, 22111.73, 20182.11, 14551.21, 0.000, 0.000, 0.000, 13:07:35.390, 1560506855390
144, 13191.62, 11507.75, 18022.30, 14056.43, 21202.15, 22134.39, 20208.86, 14578.21, 0.000, 0.000, 0.000, 13:07:35.390, 1560506855390
145, 13089.94, 11400.73, 17919.53, 13968.57, 21129.06, 22060.03, 20125.02, 14501.43, 0.000, 0.000, 0.000, 13:07:35.390, 1560506855390
146, 12905.96, 11215.48, 17737.81, 13792.99, 20957.20, 21891.81, 19948.69, 14332.72, 0.000, 0.000, 0.000, 13:07:35.390, 1560506855390
147, 12950.51, 11259.31, 17780.99, 13823.48, 20983.17, 21910.27, 19981.99, 14361.22, 0.000, 0.000, 0.000, 13:07:35.390, 1560506855390
148, 13123.18, 11435.24, 17972.01, 14014.01, 21161.67, 22084.17, 20164.20, 14539.54, 0.000, 0.000, 0.000, 13:07:35.390, 1560506855390
149, 13143.92, 11456.12, 17986.74, 14032.80, 21188.11, 22113.92, 20188.34, 14570.23, 0.016, 0.050, -1.020, 13:07:35.390, 1560506855390
150, 13047.23, 11365.21, 17880.77, 13934.77, 21103.69, 22033.37, 20106.31, 14494.82, 0.000, 0.000, 0.000, 13:07:35.390, 1560506855390
151, 12867.70, 11180.90, 17698.69, 13760.67, 20939.02, 21873.01, 19940.55, 14335.18, 0.000, 0.000, 0.000, 13:07:35.390, 1560506855390
152, 12927.82, 11251.17, 17771.92, 13816.55, 20977.76, 21913.58, 19989.97, 14379.06, 0.000, 0.000, 0.000, 13:07:35.390, 1560506855390
153, 13114.08, 11439.69, 17965.46, 14001.60, 21148.97, 22084.55, 20171.20, 14551.75, 0.000, 0.000, 0.000, 13:07:35.391, 1560506855391
154, 13154.20, 11462.85, 17981.80, 14035.04, 21188.45, 22128.52, 20211.74, 14589.56, 0.000, 0.000, 0.000, 13:07:35.391, 1560506855391
155, 13055.30, 11350.28, 17873.75, 13936.02, 21106.35, 22049.26, 20116.70, 14501.68, 0.000, 0.000, 0.000, 13:07:35.391, 1560506855391
156, 12865.64, 11181.15, 17709.09, 13767.94, 20949.82, 21894.11, 19950.59, 14342.98, 0.000, 0.000, 0.000, 13:07:35.391, 1560506855391
157, 12913.63, 11241.50, 17775.20, 13811.61, 20974.72, 21913.52, 19982.26, 14366.27, 0.000, 0.000, 0.000, 13:07:35.391, 1560506855391
158, 13123.47, 11424.38, 17969.71, 14005.33, 21151.92, 22083.21, 20166.57, 14537.89, 0.000, 0.000, 0.000, 13:07:35.391, 1560506855391
159, 13148.44, 11446.91, 17993.44, 14029.70, 21186.01, 22119.13, 20194.93, 14568.31, 0.016, 0.052, -1.022, 13:07:35.391, 1560506855391
160, 13052.01, 11381.58, 17914.25, 13950.55, 21117.90, 22053.59, 20118.78, 14499.49, 0.000, 0.000, 0.000, 13:07:35.391, 1560506855391
161, 12876.53, 11206.81, 17731.50, 13779.65, 20951.25, 21888.95, 19945.11, 14332.45, 0.000, 0.000, 0.000, 13:07:35.391, 1560506855391
162, 12929.10, 11238.79, 17767.49, 13818.21, 20969.45, 21903.30, 19965.58, 14344.97, 0.000, 0.000, 0.000, 13:07:35.391, 1560506855391
163, 13118.08, 11439.09, 17964.37, 14015.68, 21145.06, 22077.89, 20149.92, 14519.96, 0.000, 0.000, 0.000, 13:07:35.391, 1560506855391
164, 13134.51, 11441.99, 17980.82, 14029.03, 21174.14, 22105.29, 20174.39, 14544.77, 0.000, 0.000, 0.000, 13:07:35.392, 1560506855392
165, 13042.51, 11333.03, 17873.93, 13931.60, 21088.40, 22020.16, 20083.36, 14456.28, 0.000, 0.000, 0.000, 13:07:35.392, 1560506855392
166, 12883.05, 11178.35, 17693.62, 13768.38, 20936.95, 21871.76, 19926.87, 14307.69, 0.000, 0.000, 0.000, 13:07:35.392, 1560506855392
167, 12931.98, 11243.55, 17768.65, 13821.89, 20980.40, 21911.15, 19977.23, 14353.62, 0.000, 0.000, 0.000, 13:07:35.392, 1560506855392
168, 13115.65, 11428.85, 17975.70, 14011.75, 21153.87, 22080.73, 20152.76, 14523.67, 0.000, 0.000, 0.000, 13:07:35.392, 1560506855392
169, 13139.79, 11443.98, 17993.04, 14028.71, 21183.71, 22109.96, 20179.85, 14553.09, 0.012, 0.054, -1.024, 13:07:35.392, 1560506855392
170, 13042.78, 11350.51, 17884.37, 13931.60, 21099.40, 22027.49, 20085.57, 14467.30, 0.000, 0.000, 0.000, 13:07:35.392, 1560506855392
171, 12869.82, 11177.57, 17697.57, 13764.79, 20932.54, 21870.91, 19914.08, 14306.01, 0.000, 0.000, 0.000, 13:07:35.392, 1560506855392
172, 12914.19, 11238.99, 17758.75, 13808.68, 20958.89, 21902.76, 19953.80, 14340.97, 0.000, 0.000, 0.000, 13:07:35.392, 1560506855392
173, 13093.45, 11440.54, 17960.88, 14007.68, 21143.30, 22083.25, 20142.18, 14526.20, 0.000, 0.000, 0.000, 13:07:35.392, 1560506855392
174, 13131.47, 11449.32, 17996.60, 14031.55, 21181.76, 22125.52, 20175.89, 14567.12, 0.000, 0.000, 0.000, 13:07:35.392, 1560506855392
175, 13033.37, 11331.95, 17881.37, 13917.11, 21084.15, 22034.04, 20073.27, 14469.36, 0.000, 0.000, 0.000, 13:07:35.392, 1560506855392
176, 12844.72, 11155.40, 17699.99, 13756.02, 20914.30, 21867.92, 19898.19, 14300.94, 0.000, 0.000, 0.000, 13:07:35.392, 1560506855392
177, 12899.46, 11205.13, 17748.69, 13802.22, 20939.96, 21889.69, 19936.93, 14331.96, 0.000, 0.000, 0.000, 13:07:35.393, 1560506855393
178, 13100.78, 11390.65, 17947.67, 13987.45, 21118.96, 22053.28, 20121.58, 14503.91, 0.008, 0.054, -1.030, 13:07:35.393, 1560506855393
179, 13119.40, 11414.77, 17968.34, 13999.68, 21149.31, 22076.28, 20143.68, 14525.86, 0.000, 0.000, 0.000, 13:07:35.393, 1560506855393
180, 13003.28, 11321.09, 17868.52, 13914.21, 21074.65, 22004.62, 20063.01, 14446.92, 0.000, 0.000, 0.000, 13:07:35.393, 1560506855393
181, 12819.02, 11134.05, 17674.17, 13737.02, 20906.12, 21840.83, 19889.43, 14278.38, 0.000, 0.000, 0.000, 13:07:35.393, 1560506855393
182, 12881.82, 11192.28, 17729.13, 13780.99, 20945.21, 21872.59, 19936.55, 14317.77, 0.000, 0.000, 0.000, 13:07:35.393, 1560506855393
183, 13105.01, 11406.01, 17948.76, 13993.11, 21144.15, 22064.95, 20139.70, 14513.61, 0.000, 0.000, 0.000, 13:07:35.393, 1560506855393
184, 13120.36, 11446.15, 17971.45, 14012.84, 21178.79, 22092.84, 20171.73, 14548.53, 0.000, 0.000, 0.000, 13:07:35.393, 1560506855393
185, 13013.39, 11368.57, 17876.63, 13912.57, 21099.80, 22015.66, 20086.86, 14471.52, 0.000, 0.000, 0.000, 13:07:35.393, 1560506855393
186, 12816.78, 11153.59, 17678.24, 13727.73, 20922.55, 21849.19, 19903.63, 14299.10, 0.000, 0.000, 0.000, 13:07:35.393, 1560506855393
187, 12871.16, 11163.49, 17737.23, 13769.63, 20944.01, 21874.85, 19931.47, 14324.81, 0.000, 0.000, 0.000, 13:07:35.393, 1560506855393
188, 13085.83, 11359.94, 17939.13, 13979.94, 21127.45, 22060.25, 20118.65, 14506.66, 0.008, 0.054, -1.032, 13:07:35.393, 1560506855393
189, 13120.43, 11412.11, 17977.02, 14029.85, 21178.52, 22113.56, 20163.73, 14559.30, 0.000, 0.000, 0.000, 13:07:35.393, 1560506855393
190, 13013.39, 11315.41, 17878.04, 13944.76, 21095.42, 22033.50, 20077.45, 14478.21, 0.000, 0.000, 0.000, 13:07:35.393, 1560506855393
191, 12844.52, 11141.58, 17695.38, 13754.03, 20925.97, 21874.76, 19908.21, 14315.58, 0.000, 0.000, 0.000, 13:07:35.393, 1560506855393
192, 12900.13, 11205.33, 17752.18, 13804.24, 20957.87, 21907.93, 19946.96, 14351.50, 0.000, 0.000, 0.000, 13:07:35.393, 1560506855393
193, 13086.14, 11404.15, 17952.14, 13988.84, 21138.40, 22083.05, 20128.71, 14525.24, 0.000, 0.000, 0.000, 13:07:35.393, 1560506855393
194, 13098.35, 11422.61, 17961.19, 14010.50, 21165.60, 22108.54, 20147.82, 14545.98, 0.000, 0.000, 0.000, 13:07:35.393, 1560506855393
195, 13009.85, 11317.18, 17858.48, 13906.70, 21078.74, 22018.50, 20055.50, 14457.53, 0.000, 0.000, 0.000, 13:07:35.393, 1560506855393
196, 12838.35, 11147.08, 17680.72, 13736.44, 20913.52, 21861.37, 19891.00, 14299.44, 0.000, 0.000, 0.000, 13:07:35.393, 1560506855393
197, 12873.38, 11203.90, 17741.05, 13777.68, 20940.05, 21880.79, 19926.11, 14325.63, 0.000, 0.000, 0.000, 13:07:35.394, 1560506855394
198, 13066.87, 11382.27, 17945.19, 13976.03, 21130.36, 22060.37, 20118.00, 14509.10, 0.006, 0.056, -1.028, 13:07:35.394, 1560506855394
199, 13080.78, 11385.64, 17963.74, 14003.23, 21163.62, 22096.46, 20154.25, 14545.84, 0.000, 0.000, 0.000, 13:07:35.394, 1560506855394
200, 12989.58, 11294.36, 17841.32, 13915.21, 21072.80, 22013.09, 20066.72, 14461.42, 0.000, 0.000, 0.000, 13:07:35.394, 1560506855394
201, 12820.31, 11112.13, 17665.57, 13734.97, 20896.62, 21842.75, 19883.08, 14286.88, 0.000, 0.000, 0.000, 13:07:35.394, 1560506855394
202, 12875.86, 11169.41, 17731.26, 13783.90, 20937.41, 21876.28, 19929.44, 14327.69, 0.000, 0.000, 0.000, 13:07:35.394, 1560506855394
203, 13081.45, 11387.16, 17940.38, 13979.21, 21131.49, 22060.19, 20119.56, 14510.68, 0.000, 0.000, 0.000, 13:07:35.394, 1560506855394
204, 13094.30, 11405.63, 17961.26, 14002.29, 21165.07, 22087.63, 20145.83, 14536.55, 0.000, 0.000, 0.000, 13:07:35.394, 1560506855394
205, 12992.96, 11297.76, 17871.02, 13910.00, 21087.13, 22006.05, 20066.10, 14458.92, 0.000, 0.000, 0.000, 13:07:35.395, 1560506855395
206, 12822.35, 11121.20, 17672.27, 13732.24, 20919.06, 21841.92, 19888.04, 14288.02, 0.000, 0.000, 0.000, 13:07:35.395, 1560506855395
207, 12860.95, 11179.65, 17728.71, 13766.93, 20935.54, 21857.86, 19908.52, 14305.29, 0.000, 0.000, 0.000, 13:07:35.395, 1560506855395
208, 13073.22, 11388.35, 17935.73, 13970.62, 21120.61, 22037.88, 20096.36, 14488.33, 0.006, 0.056, -1.034, 13:07:35.395, 1560506855395
209, 13094.41, 11418.21, 17946.68, 13998.18, 21157.04, 22076.28, 20126.54, 14524.30, 0.000, 0.000, 0.000, 13:07:35.395, 1560506855395
210, 12994.50, 11295.41, 17855.51, 13906.83, 21075.41, 22006.65, 20039.28, 14448.95, 0.000, 0.000, 0.000, 13:07:35.395, 1560506855395
211, 12801.54, 11111.21, 17685.88, 13720.82, 20898.10, 21845.90, 19863.35, 14284.62, 0.000, 0.000, 0.000, 13:07:35.864, 1560506855864
212, 12842.95, 11157.86, 17715.75, 13757.14, 20914.75, 21863.22, 19891.55, 14309.00, 0.000, 0.000, 0.000, 13:07:35.865, 1560506855865
213, 13055.45, 11372.08, 17919.95, 13970.31, 21107.96, 22052.41, 20098.89, 14507.11, 0.000, 0.000, 0.000, 13:07:35.865, 1560506855865
214, 13090.32, 11391.32, 17953.19, 14009.36, 21153.71, 22101.81, 20142.45, 14554.99, 0.000, 0.000, 0.000, 13:07:35.865, 1560506855865
215, 13007.08, 11301.06, 17866.67, 13925.20, 21079.44, 22030.01, 20060.09, 14481.69, 0.000, 0.000, 0.000, 13:07:35.865, 1560506855865
216, 12827.04, 11139.33, 17684.01, 13747.44, 20906.53, 21864.28, 19885.70, 14316.94, 0.000, 0.000, 0.000, 13:07:35.865, 1560506855865
217, 12868.19, 11177.62, 17727.57, 13774.55, 20927.24, 21877.06, 19915.81, 14339.96, 0.000, 0.000, 0.000, 13:07:35.865, 1560506855865
218, 13069.49, 11358.06, 17936.67, 13968.68, 21112.54, 22049.64, 20105.10, 14518.22, 0.012, 0.052, -1.028, 13:07:35.866, 1560506855866
219, 13084.78, 11377.55, 17959.71, 14002.50, 21154.07, 22083.10, 20138.70, 14549.91, 0.000, 0.000, 0.000, 13:07:35.866, 1560506855866
220, 12997.52, 11304.48, 17881.69, 13925.72, 21081.85, 22013.49, 20061.52, 14475.53, 0.000, 0.000, 0.000, 13:07:35.866, 1560506855866
221, 12820.04, 11134.92, 17690.60, 13750.84, 20913.92, 21845.79, 19882.97, 14303.28, 0.000, 0.000, 0.000, 13:07:35.866, 1560506855866
222, 12842.73, 11157.50, 17699.09, 13763.56, 20924.41, 21849.14, 19893.74, 14306.70, 0.000, 0.000, 0.000, 13:07:35.866, 1560506855866
223, 13044.32, 11351.13, 17909.40, 13948.29, 21105.28, 22023.46, 20077.05, 14482.95, 0.000, 0.000, 0.000, 13:07:35.867, 1560506855867
224, 13080.37, 11395.43, 17950.66, 13975.29, 21150.47, 22065.96, 20116.61, 14523.58, 0.000, 0.000, 0.000, 13:07:35.867, 1560506855867
225, 12988.35, 11304.91, 17862.91, 13909.22, 21083.60, 22001.89, 20039.30, 14455.12, 0.000, 0.000, 0.000, 13:07:35.867, 1560506855867
226, 12806.43, 11114.96, 17673.72, 13736.22, 20914.88, 21839.96, 19863.68, 14287.01, 0.000, 0.000, 0.000, 13:07:35.867, 1560506855867
227, 12838.93, 11138.23, 17704.44, 13753.45, 20921.66, 21844.61, 19885.18, 14300.74, 0.000, 0.000, 0.000, 13:07:35.867, 1560506855867
228, 13069.06, 11349.79, 17936.43, 13956.74, 21113.55, 22036.25, 20090.39, 14498.70, 0.010, 0.052, -1.032, 13:07:35.867, 1560506855867
229, 13094.37, 11382.47, 17960.14, 13991.50, 21153.29, 22081.71, 20126.31, 14539.67, 0.000, 0.000, 0.000, 13:07:35.867, 1560506855867
230, 13019.80, 11300.44, 17879.27, 13929.47, 21088.29, 22024.80, 20055.91, 14475.24, 0.000, 0.000, 0.000, 13:07:35.867, 1560506855867
231, 12814.54, 11123.26, 17682.67, 13745.61, 20920.18, 21862.22, 19876.49, 14306.23, 0.000, 0.000, 0.000, 13:07:35.867, 1560506855867
232, 12827.08, 11152.98, 17717.58, 13760.18, 20918.06, 21859.22, 19875.88, 14305.45, 0.000, 0.000, 0.000, 13:07:35.867, 1560506855867
233, 13040.52, 11364.41, 17932.87, 13976.21, 21109.39, 22044.38, 20075.87, 14499.06, 0.000, 0.000, 0.000, 13:07:35.867, 1560506855867
234, 13087.04, 11389.96, 17961.71, 14007.48, 21152.08, 22086.74, 20116.30, 14542.22, 0.000, 0.000, 0.000, 13:07:35.867, 1560506855867
235, 12993.02, 11299.52, 17859.24, 13912.26, 21073.98, 22014.72, 20033.94, 14468.91, 0.000, 0.000, 0.000, 13:07:35.867, 1560506855867
236, 12812.85, 11129.94, 17677.79, 13738.16, 20918.28, 21862.84, 19874.05, 14320.16, 0.000, 0.000, 0.000, 13:07:35.867, 1560506855867
237, 12855.74, 11162.24, 17721.42, 13770.69, 20933.71, 21871.23, 19895.24, 14336.32, 0.000, 0.000, 0.000, 13:07:35.868, 1560506855868
238, 13040.77, 11344.65, 17925.45, 13967.47, 21111.18, 22041.43, 20079.20, 14510.39, 0.016, 0.050, -1.028, 13:07:35.868, 1560506855868
239, 13077.11, 11390.83, 17968.50, 14007.10, 21162.81, 22097.04, 20132.84, 14566.92, 0.000, 0.000, 0.000, 13:07:35.868, 1560506855868
240, 13001.67, 11302.72, 17872.48, 13928.56, 21091.98, 22029.97, 20060.53, 14500.58, 0.000, 0.000, 0.000, 13:07:35.868, 1560506855868
241, 12822.61, 11110.74, 17704.73, 13752.83, 20922.06, 21866.09, 19889.90, 14330.75, 0.000, 0.000, 0.000, 13:07:35.868, 1560506855868
242, 12843.33, 11141.81, 17740.54, 13761.45, 20934.17, 21870.96, 19903.45, 14336.27, 0.000, 0.000, 0.000, 13:07:35.868, 1560506855868
243, 13038.89, 11351.36, 17907.88, 13958.46, 21115.33, 22037.54, 20077.16, 14495.37, 0.000, 0.000, 0.000, 13:07:35.868, 1560506855868
244, 13086.16, 11393.06, 17962.02, 14014.41, 21166.43, 22082.88, 20123.41, 14538.38, 0.000, 0.000, 0.000, 13:07:35.868, 1560506855868
245, 13013.63, 11307.68, 17880.70, 13951.49, 21105.37, 22032.81, 20063.69, 14485.29, 0.000, 0.000, 0.000, 13:07:35.868, 1560506855868
246, 12822.35, 11125.40, 17694.33, 13762.37, 20939.34, 21875.85, 19889.72, 14317.95, 0.000, 0.000, 0.000, 13:07:35.868, 1560506855868
247, 12826.62, 11136.04, 17711.83, 13762.93, 20939.81, 21872.70, 19887.91, 14315.15, 0.000, 0.000, 0.000, 13:07:35.868, 1560506855868
248, 13036.61, 11328.71, 17915.88, 13965.46, 21119.40, 22047.29, 20066.48, 14488.69, 0.014, 0.056, -1.034, 13:07:35.868, 1560506855868
249, 13071.93, 11376.21, 17961.01, 14004.51, 21164.82, 22096.69, 20110.69, 14533.73, 0.000, 0.000, 0.000, 13:07:35.868, 1560506855868
250, 12982.18, 11309.38, 17873.30, 13925.45, 21091.62, 22031.94, 20034.85, 14464.35, 0.000, 0.000, 0.000, 13:07:35.868, 1560506855868
251, 12795.79, 11109.91, 17684.77, 13756.13, 20922.53, 21873.33, 19858.09, 14300.85, 0.000, 0.000, 0.000, 13:07:35.868, 1560506855868
252, 12821.43, 11123.50, 17716.91, 13759.42, 20917.32, 21870.02, 19867.71, 14307.24, 0.000, 0.000, 0.000, 13:07:35.868, 1560506855868
253, 13047.70, 11349.68, 17939.31, 13962.82, 21108.05, 22051.63, 20065.54, 14498.93, 0.000, 0.000, 0.000, 13:07:35.868, 1560506855868
254, 13086.30, 11391.21, 17959.58, 13999.37, 21152.93, 22097.02, 20108.66, 14545.71, 0.000, 0.000, 0.000, 13:07:35.868, 1560506855868
255, 13007.42, 11307.66, 17873.75, 13936.36, 21089.63, 22034.93, 20042.83, 14485.56, 0.000, 0.000, 0.000, 13:07:35.868, 1560506855868
0, 12831.42, 11132.87, 17689.19, 13774.02, 20928.07, 21878.98, 19884.02, 14331.11, 0.000, 0.000, 0.000, 13:07:35.868, 1560506855868
1, 12842.57, 11143.13, 17707.16, 13769.05, 20922.80, 21869.57, 19889.74, 14329.93, 0.000, 0.000, 0.000, 13:07:35.868, 1560506855868
2, 13020.29, 11333.97, 17913.45, 13966.58, 21100.25, 22036.20, 20065.00, 14498.44, 0.008, 0.056, -1.030, 13:07:35.869, 1560506855869
3, 13062.16, 11377.66, 17969.24, 14015.21, 21159.48, 22094.56, 20122.43, 14556.04, 0.000, 0.000, 0.000, 13:07:35.869, 1560506855869
4, 12978.23, 11287.25, 17880.30, 13926.61, 21092.07, 22024.04, 20044.13, 14480.73, 0.000, 0.000, 0.000, 13:07:35.869, 1560506855869
5, 12806.21, 11107.34, 17690.64, 13761.34, 20936.28, 21876.17, 19888.65, 14333.93, 0.000, 0.000, 0.000, 13:07:35.869, 1560506855869
6, 12820.51, 11107.99, 17711.97, 13750.75, 20928.16, 21857.99, 19882.79, 14324.72, 0.000, 0.000, 0.000, 13:07:35.869, 1560506855869
7, 13022.53, 11314.59, 17918.34, 13941.18, 21108.70, 22022.79, 20065.58, 14494.19, 0.000, 0.000, 0.000, 13:07:35.869, 1560506855869
8, 13062.65, 11364.43, 17959.47, 13989.17, 21164.22, 22074.98, 20117.20, 14542.69, 0.000, 0.000, 0.000, 13:07:35.869, 1560506855869
9, 12971.30, 11270.60, 17857.37, 13906.50, 21094.26, 22006.07, 20037.78, 14466.88, 0.000, 0.000, 0.000, 13:07:35.869, 1560506855869
10, 12791.97, 11100.79, 17675.89, 13741.20, 20935.60, 21857.35, 19874.05, 14316.54, 0.000, 0.000, 0.000, 13:07:35.869, 1560506855869
11, 12807.68, 11124.26, 17699.43, 13746.03, 20927.07, 21853.37, 19870.90, 14309.97, 0.000, 0.000, 0.000, 13:07:35.869, 1560506855869
12, 13009.79, 11328.74, 17905.56, 13946.93, 21105.72, 22030.82, 20055.55, 14483.66, 0.008, 0.056, -1.036, 13:07:35.869, 1560506855869
13, 13052.26, 11378.60, 17946.53, 14013.67, 21158.12, 22094.10, 20101.62, 14534.78, 0.000, 0.000, 0.000, 13:07:35.869, 1560506855869
14, 12980.35, 11289.78, 17856.03, 13922.36, 21084.27, 22024.13, 20026.36, 14464.30, 0.000, 0.000, 0.000, 13:07:35.869, 1560506855869
15, 12802.23, 11103.97, 17679.00, 13753.54, 20920.43, 21867.02, 19850.79, 14300.94, 0.000, 0.000, 0.000, 13:07:35.869, 1560506855869
16, 12810.21, 11132.38, 17711.05, 13771.94, 20919.64, 21868.54, 19848.82, 14304.04, 0.000, 0.000, 0.000, 13:07:35.869, 1560506855869
17, 13017.50, 11322.28, 17925.72, 13968.12, 21102.44, 22041.88, 20036.51, 14482.83, 0.000, 0.000, 0.000, 13:07:35.869, 1560506855869
18, 13054.67, 11342.93, 17953.32, 14006.43, 21148.84, 22090.77, 20081.28, 14532.05, 0.000, 0.000, 0.000, 13:07:35.870, 1560506855870
19, 12973.96, 11270.60, 17875.00, 13937.36, 21086.05, 22033.63, 20015.52, 14471.52, 0.000, 0.000, 0.000, 13:07:35.870, 1560506855870
20, 12817.63, 11116.75, 17720.53, 13771.38, 20935.11, 21885.84, 19858.09, 14321.57, 0.000, 0.000, 0.000, 13:07:35.870, 1560506855870
21, 12828.90, 11123.32, 17717.29, 13754.19, 20917.72, 21868.14, 19846.54, 14304.54, 0.000, 0.000, 0.000, 13:07:35.870, 1560506855870
22, 13030.89, 11324.26, 17907.08, 13970.42, 21106.93, 22046.78, 20046.36, 14490.01, 0.008, 0.056, -1.034, 13:07:35.870, 1560506855870
23, 13074.63, 11382.25, 17971.61, 14029.85, 21176.73, 22112.33, 20118.92, 14562.14, 0.000, 0.000, 0.000, 13:07:35.870, 1560506855870
24, 12971.81, 11300.13, 17876.77, 13945.86, 21105.72, 22044.63, 20045.47, 14495.24, 0.000, 0.000, 0.000, 13:07:35.870, 1560506855870
25, 12783.79, 11110.22, 17685.82, 13759.53, 20925.77, 21869.19, 19863.90, 14318.93, 0.000, 0.000, 0.000, 13:07:35.870, 1560506855870
26, 12787.83, 11118.70, 17695.36, 13752.71, 20912.83, 21850.48, 19868.13, 14312.49, 0.000, 0.000, 0.000, 13:07:35.870, 1560506855870
27, 13001.85, 11333.63, 17903.41, 13961.84, 21107.73, 22031.94, 20065.70, 14497.63, 0.000, 0.000, 0.000, 13:07:35.870, 1560506855870
28, 13048.90, 11362.40, 17954.89, 14012.15, 21173.65, 22093.11, 20126.67, 14558.61, 0.000, 0.000, 0.000, 13:07:35.870, 1560506855870
29, 12971.90, 11269.06, 17887.27, 13938.91, 21111.09, 22032.83, 20062.46, 14501.54, 0.000, 0.000, 0.000, 13:07:35.870, 1560506855870
30, 12774.40, 11063.69, 17678.58, 13741.63, 20932.38, 21861.62, 19880.78, 14328.54, 0.000, 0.000, 0.000, 13:07:35.870, 1560506855870
31, 12778.63, 11080.18, 17687.81, 13740.60, 20924.94, 21854.10, 19884.13, 14326.37, 0.008, 0.054, -1.038, 13:07:35.870, 1560506855870
32, 12975.10, 11282.58, 17904.44, 13935.62, 21100.49, 22025.36, 20063.17, 14496.69, 0.000, 0.000, 0.000, 13:07:35.870, 1560506855870
33, 13033.55, 11337.23, 17936.71, 13992.08, 21152.33, 22083.75, 20104.70, 14543.61, 0.000, 0.000, 0.000, 13:07:35.870, 1560506855870
34, 12953.35, 11259.04, 17858.02, 13927.97, 21082.34, 22028.00, 20022.07, 14470.18, 0.000, 0.000, 0.000, 13:07:35.870, 1560506855870
35, 12780.97, 11079.56, 17678.11, 13758.59, 20924.07, 21876.50, 19848.77, 14309.41, 0.000, 0.000, 0.000, 13:07:35.870, 1560506855870
36, 12775.94, 11084.99, 17672.72, 13747.89, 20907.42, 21854.73, 19827.52, 14287.21, 0.000, 0.000, 0.000, 13:07:35.870, 1560506855870
37, 12958.87, 11284.17, 17875.67, 13940.11, 21082.41, 22018.66, 20011.31, 14459.88, 0.000, 0.000, 0.000, 13:07:35.870, 1560506855870
38, 13016.99, 11331.15, 17916.06, 13979.47, 21129.46, 22069.58, 20055.28, 14511.42, 0.000, 0.000, 0.000, 13:07:35.871, 1560506855871
39, 12958.04, 11285.02, 17855.94, 13921.92, 21079.08, 22022.66, 19993.86, 14458.61, 0.000, 0.000, 0.000, 13:07:35.871, 1560506855871
40, 12777.62, 11088.03, 17684.43, 13757.34, 20920.67, 21868.48, 19827.81, 14300.49, 0.000, 0.000, 0.000, 13:07:35.871, 1560506855871
41, 12769.73, 11060.18, 17688.70, 13733.16, 20903.80, 21844.11, 19815.54, 14281.56, 0.008, 0.048, -1.042, 13:07:35.871, 1560506855871
42, 12969.35, 11272.59, 17888.70, 13922.66, 21088.60, 22019.60, 20013.73, 14467.70, 0.000, 0.000, 0.000, 13:07:35.871, 1560506855871
43, 13011.62, 11316.29, 17921.25, 13983.34, 21140.30, 22069.73, 20067.11, 14520.39, 0.000, 0.000, 0.000, 13:07:35.871, 1560506855871
44, 12945.33, 11239.64, 17855.69, 13931.77, 21088.09, 22016.09, 20009.15, 14467.93, 0.000, 0.000, 0.000, 13:07:35.871, 1560506855871
45, 12784.79, 11072.81, 17683.98, 13764.11, 20935.18, 21869.44, 19850.67, 14319.38, 0.000, 0.000, 0.000, 13:07:35.871, 1560506855871
46, 12759.87, 11058.79, 17673.05, 13723.37, 20906.23, 21831.02, 19818.22, 14284.46, 0.000, 0.000, 0.000, 13:07:35.871, 1560506855871
47, 12947.16, 11268.43, 17881.62, 13912.19, 21091.96, 22008.00, 20012.81, 14467.46, 0.000, 0.000, 0.000, 13:07:35.871, 1560506855871
48, 12997.99, 11330.52, 17947.02, 13980.41, 21152.75, 22072.46, 20076.25, 14527.20, 0.000, 0.000, 0.000, 13:07:35.871, 1560506855871
49, 12912.51, 11241.38, 17840.69, 13895.16, 21077.54, 22000.49, 20000.01, 14453.55, 0.000, 0.000, 0.000, 13:07:35.871, 1560506855871
50, 12748.56, 11061.07, 17654.35, 13724.17, 20915.15, 21845.39, 19834.22, 14294.72, 0.000, 0.000, 0.000, 13:07:35.871, 1560506855871
51, 12747.27, 11051.44, 17652.98, 13714.63, 20895.62, 21827.69, 19819.16, 14277.47, 0.008, 0.048, -1.038, 13:07:35.871, 1560506855871
52, 12944.81, 11245.94, 17855.82, 13901.42, 21060.69, 21991.34, 19996.00, 14443.85, 0.000, 0.000, 0.000, 13:07:35.871, 1560506855871
53, 12989.98, 11269.91, 17896.79, 13952.05, 21112.05, 22041.50, 20054.57, 14499.00, 0.000, 0.000, 0.000, 13:07:35.872, 1560506855872
54, 12916.31, 11204.79, 17825.90, 13893.06, 21060.93, 22001.42, 19998.57, 14454.22, 0.000, 0.000, 0.000, 13:07:35.872, 1560506855872
55, 12740.47, 11036.75, 17649.76, 13718.23, 20893.14, 21845.12, 19828.50, 14293.56, 0.000, 0.000, 0.000, 13:07:35.872, 1560506855872
56, 12755.11, 11039.19, 17668.96, 13720.48, 20879.35, 21830.01, 19816.52, 14280.82, 0.000, 0.000, 0.000, 13:07:35.872, 1560506855872
57, 12930.39, 11238.95, 17866.13, 13915.50, 21056.28, 21996.71, 19987.69, 14448.30, 0.000, 0.000, 0.000, 13:07:35.872, 1560506855872
58, 12970.56, 11278.18, 17897.73, 13968.88, 21113.32, 22049.91, 20048.35, 14504.23, 0.000, 0.000, 0.000, 13:07:35.872, 1560506855872
59, 12897.49, 11198.96, 17808.73, 13888.32, 21044.30, 21988.17, 19974.37, 14436.50, 0.000, 0.000, 0.000, 13:07:35.873, 1560506855873
60, 12712.06, 11031.23, 17633.83, 13708.30, 20880.62, 21828.67, 19798.59, 14271.41, 0.000, 0.000, 0.000, 13:07:35.873, 1560506855873
61, 12706.27, 11033.18, 17642.32, 13692.37, 20859.09, 21805.33, 19778.63, 14248.48, 0.012, 0.048, -1.038, 13:07:35.873, 1560506855873
62, 12909.16, 11232.04, 17845.34, 13874.04, 21028.99, 21963.11, 19950.29, 14406.35, 0.000, 0.000, 0.000, 13:07:35.873, 1560506855873
63, 12960.70, 11287.88, 17887.41, 13931.37, 21087.28, 22023.42, 20010.67, 14469.85, 0.000, 0.000, 0.000, 13:07:35.873, 1560506855873
64, 12892.13, 11191.38, 17817.20, 13875.09, 21031.83, 21971.52, 19951.35, 14415.56, 0.000, 0.000, 0.000, 13:07:35.873, 1560506855873
65, 12719.26, 11003.14, 17643.01, 13707.56, 20878.23, 21821.56, 19791.22, 14262.40, 0.000, 0.000, 0.000, 13:07:35.873, 1560506855873
66, 12710.63, 11009.93, 17620.93, 13687.78, 20856.03, 21792.57, 19773.38, 14238.96, 0.000, 0.000, 0.000, 13:07:35.873, 1560506855873
67, 12912.29, 11218.03, 17822.39, 13879.02, 21036.97, 21961.35, 19958.97, 14413.81, 0.000, 0.000, 0.000, 13:07:35.873, 1560506855873
68, 12969.96, 11266.80, 17888.97, 13939.98, 21092.80, 22017.56, 20013.91, 14468.91, 0.000, 0.000, 0.000, 13:07:35.873, 1560506855873
69, 12891.12, 11205.00, 17816.98, 13881.84, 21037.86, 21966.02, 19959.04, 14418.98, 0.000, 0.000, 0.000, 13:07:35.874, 1560506855874
70, 12700.55, 11010.98, 17627.61, 13693.19, 20877.60, 21809.24, 19802.17, 14262.85, 0.000, 0.000, 0.000, 13:07:35.874, 1560506855874
71, 12689.55, 10983.45, 17614.09, 13670.68, 20844.65, 21780.72, 19774.39, 14235.07, 0.010, 0.048, -1.032, 13:07:35.874, 1560506855874
72, 12883.75, 11192.59, 17815.59, 13869.95, 21025.57, 21958.60, 19962.70, 14414.95, 0.000, 0.000, 0.000, 13:07:35.874, 1560506855874
73, 12935.58, 11247.51, 17861.03, 13925.67, 21086.54, 22022.57, 20022.83, 14477.11, 0.000, 0.000, 0.000, 13:07:35.874, 1560506855874
74, 12868.21, 11173.01, 17783.81, 13850.71, 21024.41, 21965.04, 19959.59, 14417.61, 0.000, 0.000, 0.000, 13:07:35.874, 1560506855874
75, 12687.61, 10999.43, 17607.59, 13677.61, 20856.86, 21805.22, 19789.74, 14255.61, 0.000, 0.000, 0.000, 13:07:36.346, 1560506856346
76, 12677.69, 10983.78, 17599.85, 13657.52, 20829.30, 21773.62, 19767.90, 14228.70, 0.000, 0.000, 0.000, 13:07:36.346, 1560506856346
77, 12886.14, 11183.87, 17817.02, 13861.19, 21023.76, 21952.97, 19966.99, 14416.18, 0.000, 0.000, 0.000, 13:07:36.346, 1560506856346
78, 12930.77, 11228.13, 17863.40, 13910.47, 21082.28, 22006.25, 20025.80, 14472.60, 0.000, 0.000, 0.000, 13:07:36.346, 1560506856346
79, 12870.71, 11166.17, 17794.20, 13848.09, 21022.11, 21953.68, 19963.71, 14417.01, 0.000, 0.000, 0.000, 13:07:36.346, 1560506856346
80, 12701.40, 11001.77, 17612.26, 13683.94, 20865.31, 21809.76, 19802.77, 14265.33, 0.000, 0.000, 0.000, 13:07:36.346, 1560506856346
81, 12658.53, 10968.65, 17590.60, 13653.25, 20829.30, 21772.81, 19768.08, 14231.76, 0.006, 0.048, -1.024, 13:07:36.346, 1560506856346
82, 12855.69, 11152.22, 17802.07, 13853.19, 21003.31, 21938.55, 19942.87, 14399.84, 0.000, 0.000, 0.000, 13:07:36.346, 1560506856346
83, 12934.57, 11227.21, 17868.05, 13922.48, 21078.57, 22014.52, 20008.34, 14467.90, 0.000, 0.000, 0.000, 13:07:36.346, 1560506856346
84, 12854.53, 11157.05, 17797.42, 13853.70, 21016.43, 21955.43, 19932.28, 14402.19, 0.000, 0.000, 0.000, 13:07:36.346, 1560506856346
85, 12689.82, 11004.61, 17612.82, 13684.21, 20866.76, 21807.39, 19770.47, 14250.35, 0.000, 0.000, 0.000, 13:07:36.346, 1560506856346
86, 12655.56, 10980.63, 17594.69, 13657.00, 20838.91, 21771.34, 19748.37, 14222.39, 0.000, 0.000, 0.000, 13:07:36.346, 1560506856346
87, 12860.05, 11176.65, 17802.78, 13853.63, 21020.25, 21947.87, 19937.26, 14399.17, 0.000, 0.000, 0.000, 13:07:36.347, 1560506856347
88, 12923.55, 11224.69, 17854.19, 13912.80, 21079.13, 22009.83, 19995.82, 14461.09, 0.000, 0.000, 0.000, 13:07:36.347, 1560506856347
89, 12860.95, 11155.98, 17793.49, 13861.30, 21029.15, 21968.63, 19942.81, 14416.67, 0.000, 0.000, 0.000, 13:07:36.347, 1560506856347
90, 12684.73, 10971.73, 17610.85, 13692.92, 20867.43, 21816.93, 19775.68, 14257.01, 0.000, 0.000, 0.000, 13:07:36.349, 1560506856349
91, 12667.92, 10962.86, 17599.23, 13667.13, 20833.68, 21783.81, 19750.02, 14228.07, 0.004, 0.048, -1.032, 13:07:36.349, 1560506856349
92, 12865.53, 11165.97, 17797.38, 13858.55, 21008.61, 21952.23, 19935.95, 14401.05, 0.000, 0.000, 0.000, 13:07:36.349, 1560506856349
93, 12924.74, 11231.62, 17861.46, 13915.37, 21080.29, 22018.97, 20007.81, 14470.38, 0.000, 0.000, 0.000, 13:07:36.349, 1560506856349
94, 12863.14, 11164.05, 17788.05, 13842.64, 21024.30, 21965.80, 19948.02, 14413.81, 0.000, 0.000, 0.000, 13:07:36.349, 1560506856349
95, 12682.67, 10974.17, 17607.54, 13674.89, 20866.72, 21811.66, 19781.88, 14256.46, 0.000, 0.000, 0.000, 13:07:36.349, 1560506856349
96, 12642.35, 10952.47, 17595.18, 13646.37, 20824.87, 21765.19, 19744.05, 14215.06, 0.000, 0.000, 0.000, 13:07:36.349, 1560506856349
97, 12839.36, 11156.85, 17781.66, 13833.40, 20996.80, 21925.72, 19922.98, 14384.38, 0.000, 0.000, 0.000, 13:07:36.349, 1560506856349
98, 12909.94, 11221.09, 17849.46, 13902.92, 21066.63, 21997.11, 19991.87, 14459.43, 0.000, 0.000, 0.000, 13:07:36.349, 1560506856349
99, 12840.52, 11136.00, 17777.77, 13833.32, 21004.83, 21938.55, 19924.54, 14397.16, 0.000, 0.000, 0.000, 13:07:36.349, 1560506856349
100, 12665.33, 10962.05, 17602.42, 13668.87, 20852.17, 21789.55, 19770.65, 14244.72, 0.000, 0.000, 0.000, 13:07:36.349, 1560506856349
101, 12631.26, 10932.48, 17572.03, 13631.64, 20806.72, 21742.90, 19728.86, 14200.73, 0.006, 0.046, -1.030, 13:07:36.349, 1560506856349
102, 12830.82, 11144.07, 17779.00, 13830.43, 20988.15, 21915.62, 19913.10, 14376.44, 0.000, 0.000, 0.000, 13:07:36.349, 1560506856349
103, 12909.09, 11217.38, 17839.42, 13906.85, 21059.77, 21987.66, 19978.48, 14445.91, 0.000, 0.000, 0.000, 13:07:36.349, 1560506856349
104, 12837.63, 11138.86, 17771.09, 13839.06, 21006.12, 21937.48, 19922.40, 14396.71, 0.000, 0.000, 0.000, 13:07:36.349, 1560506856349
105, 12645.25, 10956.74, 17598.02, 13666.12, 20845.33, 21783.09, 19756.24, 14239.80, 0.000, 0.000, 0.000, 13:07:36.349, 1560506856349
106, 12638.48, 10946.16, 17577.81, 13637.54, 20811.37, 21748.94, 19720.81, 14204.04, 0.000, 0.000, 0.000, 13:07:36.349, 1560506856349
107, 12842.37, 11142.63, 17769.66, 13828.22, 20987.21, 21913.85, 19897.14, 14371.14, 0.000, 0.000, 0.000, 13:07:36.349, 1560506856349
108, 12912.27, 11209.65, 17857.86, 13894.76, 21058.56, 21987.68, 19966.23, 14441.28, 0.000, 0.000, 0.000, 13:07:36.349, 1560506856349
109, 12842.49, 11140.40, 17781.77, 13827.12, 20997.83, 21931.24, 19900.27, 14380.64, 0.000, 0.000, 0.000, 13:07:36.349, 1560506856349
110, 12659.47, 10959.46, 17580.38, 13669.59, 20842.80, 21782.27, 19733.42, 14222.30, 0.000, 0.000, 0.000, 13:07:36.350, 1560506856350
111, 12620.55, 10921.44, 17544.64, 13618.87, 20791.50, 21733.18, 19683.04, 14171.77, 0.008, 0.048, -1.038, 13:07:36.350, 1560506856350
112, 12810.14, 11124.64, 17757.14, 13811.08, 20972.78, 21908.17, 19875.82, 14351.41, 0.000, 0.000, 0.000, 13:07:36.350, 1560506856350
113, 12876.48, 11194.85, 17811.34, 13888.35, 21048.23, 21991.84, 19957.43, 14430.91, 0.000, 0.000, 0.000, 13:07:36.350, 1560506856350
114, 12823.44, 11144.56, 17759.91, 13830.39, 20992.49, 21944.23, 19899.40, 14380.69, 0.000, 0.000, 0.000, 13:07:36.350, 1560506856350
115, 12659.83, 10977.52, 17606.18, 13673.32, 20851.67, 21805.04, 19759.46, 14244.25, 0.000, 0.000, 0.000, 13:07:36.350, 1560506856350
116, 12630.95, 10938.16, 17581.30, 13646.01, 20809.83, 21761.23, 19719.29, 14202.77, 0.000, 0.000, 0.000, 13:07:36.350, 1560506856350
117, 12817.85, 11118.00, 17758.86, 13818.07, 20980.38, 21917.07, 19892.63, 14364.08, 0.000, 0.000, 0.000, 13:07:36.350, 1560506856350
118, 12893.27, 11184.83, 17843.22, 13895.74, 21062.21, 21993.06, 19971.84, 14444.01, 0.000, 0.000, 0.000, 13:07:36.350, 1560506856350
119, 12842.49, 11136.58, 17791.09, 13843.80, 21020.21, 21956.32, 19927.03, 14405.68, 0.000, 0.000, 0.000, 13:07:36.350, 1560506856350
120, 12660.52, 10960.96, 17594.82, 13663.40, 20853.42, 21795.95, 19756.57, 14244.23, 0.000, 0.000, 0.000, 13:07:36.350, 1560506856350
