%OpenBCI Raw EEG Data
%Number of channels = 8
%Sample Rate = 250.0 Hz
%First Column = SampleIndex
%Last Column = Timestamp 
%Other Columns = EEG data in microvolts followed by Accel Data (in G) interleaved with Aux Data
0, -920.91, -667.36, -1659.21, -2016.17, -1143.38, -1567.13, -810.18, 836.76, 0.004, 0.018, -0.518, 16:37:53.402, 1560433073402
1, -921.70, -666.73, -1659.44, -2016.37, -1142.51, -1567.06, -808.44, 835.08, 0.000, 0.000, 0.000, 16:37:53.884, 1560433073884
2, -920.94, -665.12, -1656.13, -2013.15, -1141.57, -1564.38, -805.69, 835.51, 0.000, 0.000, 0.000, 16:37:53.885, 1560433073885
3, -920.65, -666.51, -1656.38, -2012.75, -1140.43, -1564.78, -805.78, 834.17, 0.000, 0.000, 0.000, 16:37:53.886, 1560433073886
4, -918.92, -668.45, -1658.75, -2015.17, -1140.63, -1567.39, -808.33, 834.26, 0.000, 0.000, 0.000, 16:37:53.887, 1560433073887
5, -920.15, -668.05, -1658.48, -2016.93, -1141.10, -1568.06, -809.54, 837.39, 0.000, 0.000, 0.000, 16:37:53.888, 1560433073888
6, -921.58, -667.07, -1655.84, -2015.72, -1139.65, -1566.23, -808.37, 837.72, 0.000, 0.000, 0.000, 16:37:53.888, 1560433073888
7, -923.06, -665.84, -1656.04, -2014.41, -1140.99, -1564.98, -807.72, 836.49, 0.006, 0.036, -0.772, 16:37:53.889, 1560433073889
8, -922.17, -666.62, -1656.42, -2014.16, -1140.59, -1565.31, -806.81, 836.34, 0.000, 0.000, 0.000, 16:37:53.891, 1560433073891
9, -919.91, -665.90, -1656.85, -2014.12, -1142.60, -1565.38, -807.12, 838.59, 0.000, 0.000, 0.000, 16:37:53.891, 1560433073891
10, -920.98, -666.55, -1657.45, -2015.03, -1143.05, -1565.87, -808.06, 838.35, 0.000, 0.000, 0.000, 16:37:53.892, 1560433073892
11, -921.65, -668.23, -1657.38, -2015.95, -1141.77, -1567.13, -808.33, 837.39, 0.000, 0.000, 0.000, 16:37:53.905, 1560433073905
12, -921.09, -667.85, -1656.29, -2014.81, -1139.85, -1566.54, -808.37, 834.12, 0.000, 0.000, 0.000, 16:37:53.906, 1560433073906
13, -917.74, -667.69, -1656.96, -2013.29, -1140.52, -1565.31, -808.33, 835.22, 0.000, 0.000, 0.000, 16:37:53.907, 1560433073907
14, -920.51, -668.50, -1659.10, -2015.39, -1142.62, -1567.37, -809.92, 837.25, 0.000, 0.000, 0.000, 16:37:53.908, 1560433073908
15, -922.70, -668.92, -1659.62, -2018.12, -1144.34, -1569.18, -810.85, 837.97, 0.000, 0.000, 0.000, 16:37:53.909, 1560433073909
16, -920.47, -667.11, -1657.69, -2016.75, -1143.96, -1567.97, -808.80, 834.99, 0.002, 0.044, -0.908, 16:37:53.910, 1560433073910
17, -920.47, -665.32, -1655.68, -2012.86, -1143.43, -1564.40, -807.50, 835.02, 0.000, 0.000, 0.000, 16:37:53.911, 1560433073911
18, -921.52, -665.63, -1655.82, -2011.93, -1142.33, -1564.09, -806.36, 837.03, 0.000, 0.000, 0.000, 16:37:53.911, 1560433073911
19, -923.57, -668.41, -1658.59, -2016.10, -1142.08, -1567.39, -808.44, 837.83, 0.000, 0.000, 0.000, 16:37:53.911, 1560433073911
20, -922.03, -669.03, -1658.70, -2017.71, -1142.46, -1568.33, -809.78, 837.12, 0.000, 0.000, 0.000, 16:37:53.912, 1560433073912
21, -921.43, -667.58, -1658.63, -2016.53, -1143.85, -1567.84, -808.51, 836.18, 0.000, 0.000, 0.000, 16:37:53.912, 1560433073912
22, -922.03, -667.38, -1657.38, -2014.47, -1141.15, -1566.45, -807.88, 835.08, 0.000, 0.000, 0.000, 16:37:53.912, 1560433073912
23, -921.45, -667.91, -1657.69, -2013.91, -1141.24, -1565.90, -807.12, 836.49, 0.000, 0.000, 0.000, 16:37:53.913, 1560433073913
24, -921.16, -667.58, -1658.30, -2014.88, -1140.52, -1566.10, -809.33, 837.05, 0.000, 0.000, 0.000, 16:37:53.913, 1560433073913
25, -921.94, -667.47, -1657.74, -2016.33, -1142.20, -1567.26, -810.30, 839.02, 0.000, 0.000, 0.000, 16:37:53.914, 1560433073914
26, -921.85, -666.55, -1657.02, -2015.77, -1141.21, -1567.44, -809.78, 837.36, 0.006, 0.046, -0.972, 16:37:53.914, 1560433073914
27, -922.41, -667.00, -1656.96, -2014.54, -1140.61, -1566.90, -808.98, 837.23, 0.000, 0.000, 0.000, 16:37:53.914, 1560433073914
28, -921.43, -668.00, -1657.96, -2014.43, -1140.36, -1566.19, -809.31, 835.02, 0.000, 0.000, 0.000, 16:37:53.914, 1560433073914
29, -920.51, -668.63, -1658.95, -2015.93, -1141.15, -1567.17, -808.66, 836.02, 0.000, 0.000, 0.000, 16:37:53.915, 1560433073915
30, -919.80, -669.23, -1658.86, -2017.62, -1141.77, -1568.80, -810.74, 837.81, 0.000, 0.000, 0.000, 16:37:53.915, 1560433073915
31, -922.77, -669.50, -1658.63, -2017.16, -1141.39, -1568.89, -811.12, 839.31, 0.000, 0.000, 0.000, 16:37:53.928, 1560433073928
32, -921.72, -667.51, -1657.40, -2014.92, -1142.58, -1566.99, -809.67, 839.02, 0.000, 0.000, 0.000, 16:37:53.929, 1560433073929
33, -920.06, -667.74, -1656.91, -2014.21, -1139.63, -1565.94, -807.88, 835.73, 0.000, 0.000, 0.000, 16:37:53.930, 1560433073930
34, -920.67, -668.16, -1658.03, -2015.26, -1140.97, -1567.30, -809.02, 836.13, 0.000, 0.000, 0.000, 16:37:53.931, 1560433073931
35, -921.32, -667.07, -1658.70, -2017.16, -1142.44, -1569.29, -809.96, 837.45, 0.000, 0.000, 0.000, 16:37:53.933, 1560433073933
36, -922.21, -667.18, -1659.08, -2017.89, -1143.31, -1569.03, -810.56, 835.44, 0.004, 0.046, -1.002, 16:37:53.933, 1560433073933
37, -923.08, -666.66, -1656.85, -2014.72, -1143.27, -1565.52, -809.18, 835.60, 0.000, 0.000, 0.000, 16:37:53.935, 1560433073935
38, -921.65, -666.77, -1656.80, -2013.98, -1143.49, -1565.23, -809.09, 835.66, 0.000, 0.000, 0.000, 16:37:53.936, 1560433073936
39, -921.92, -667.96, -1658.99, -2016.80, -1141.66, -1567.66, -810.38, 837.14, 0.000, 0.000, 0.000, 16:37:53.938, 1560433073938
40, -923.17, -669.19, -1659.86, -2019.23, -1142.33, -1569.45, -812.20, 836.94, 0.000, 0.000, 0.000, 16:37:53.938, 1560433073938
41, -922.99, -668.90, -1658.81, -2018.38, -1143.43, -1568.94, -809.60, 834.41, 0.000, 0.000, 0.000, 16:37:53.939, 1560433073939
42, -921.72, -667.45, -1658.25, -2016.17, -1142.91, -1567.39, -808.40, 836.60, 0.000, 0.000, 0.000, 16:37:53.939, 1560433073939
43, -921.50, -667.07, -1658.83, -2015.12, -1141.93, -1566.39, -809.29, 838.26, 0.000, 0.000, 0.000, 16:37:53.939, 1560433073939
44, -923.40, -667.47, -1658.75, -2016.33, -1139.51, -1566.70, -810.00, 837.92, 0.000, 0.000, 0.000, 16:37:53.939, 1560433073939
45, -924.29, -667.96, -1658.39, -2018.38, -1143.18, -1568.69, -811.86, 836.96, 0.000, 0.000, 0.000, 16:37:53.940, 1560433073940
46, -923.24, -669.46, -1658.92, -2018.34, -1142.82, -1569.11, -811.57, 836.92, 0.000, 0.054, -1.018, 16:37:53.941, 1560433073941
47, -922.70, -668.72, -1657.87, -2016.53, -1141.48, -1567.46, -809.27, 836.92, 0.000, 0.000, 0.000, 16:37:53.941, 1560433073941
48, -921.50, -667.71, -1657.92, -2015.39, -1142.80, -1566.57, -809.07, 837.25, 0.000, 0.000, 0.000, 16:37:53.941, 1560433073941
49, -923.86, -668.00, -1658.86, -2016.60, -1143.45, -1567.21, -810.05, 838.66, 0.000, 0.000, 0.000, 16:37:53.941, 1560433073941
50, -922.23, -668.38, -1658.97, -2018.07, -1142.67, -1568.56, -812.08, 840.38, 0.000, 0.000, 0.000, 16:37:53.941, 1560433073941
51, -921.79, -668.18, -1657.07, -2016.86, -1145.12, -1567.51, -811.57, 838.70, 0.000, 0.000, 0.000, 16:37:53.942, 1560433073942
52, -922.10, -668.85, -1656.91, -2016.28, -1141.88, -1566.28, -810.85, 835.20, 0.000, 0.000, 0.000, 16:37:53.942, 1560433073942
53, -922.48, -669.03, -1658.07, -2017.33, -1142.02, -1567.46, -810.27, 836.13, 0.000, 0.000, 0.000, 16:37:53.942, 1560433073942
54, -923.24, -668.23, -1659.53, -2018.52, -1141.46, -1568.73, -808.28, 838.08, 0.000, 0.000, 0.000, 16:37:53.942, 1560433073942
55, -923.28, -668.72, -1660.60, -2019.44, -1143.69, -1570.23, -811.99, 838.84, 0.000, 0.000, 0.000, 16:37:53.942, 1560433073942
56, -921.96, -668.12, -1659.42, -2018.54, -1143.38, -1568.80, -811.90, 837.05, -0.002, 0.052, -1.026, 16:37:53.943, 1560433073943
57, -920.82, -668.36, -1657.40, -2016.37, -1142.29, -1567.08, -810.00, 836.42, 0.000, 0.000, 0.000, 16:37:53.943, 1560433073943
58, -920.31, -667.91, -1656.35, -2015.41, -1140.43, -1566.32, -809.09, 838.03, 0.000, 0.000, 0.000, 16:37:53.944, 1560433073944
59, -922.50, -667.87, -1657.92, -2016.93, -1141.21, -1567.53, -809.69, 840.34, 0.000, 0.000, 0.000, 16:37:53.944, 1560433073944
60, -922.14, -668.45, -1659.66, -2019.50, -1145.19, -1569.92, -809.38, 837.77, 0.000, 0.000, 0.000, 16:37:53.945, 1560433073945
61, -923.02, -669.23, -1659.77, -2019.12, -1143.09, -1569.67, -809.94, 836.27, 0.000, 0.000, 0.000, 16:37:53.945, 1560433073945
62, -922.68, -669.19, -1658.59, -2017.40, -1141.03, -1568.11, -810.79, 836.98, 0.000, 0.000, 0.000, 16:37:53.946, 1560433073946
63, -920.20, -668.36, -1658.25, -2017.16, -1140.21, -1566.66, -809.51, 836.27, 0.000, 0.000, 0.000, 16:37:53.946, 1560433073946
64, -921.16, -668.23, -1659.97, -2019.12, -1141.37, -1568.33, -809.56, 838.06, 0.000, 0.000, 0.000, 16:37:53.946, 1560433073946
65, -921.83, -668.63, -1660.15, -2020.31, -1142.17, -1569.16, -809.49, 838.55, 0.000, 0.000, 0.000, 16:37:53.947, 1560433073947
66, -921.05, -669.46, -1658.92, -2018.85, -1142.35, -1568.22, -811.86, 836.76, 0.004, 0.050, -1.026, 16:37:53.947, 1560433073947
67, -922.32, -668.74, -1656.96, -2016.93, -1142.78, -1566.50, -810.09, 837.12, 0.000, 0.000, 0.000, 16:37:53.947, 1560433073947
68, -922.93, -668.18, -1658.88, -2017.96, -1142.26, -1567.80, -810.83, 838.50, 0.000, 0.000, 0.000, 16:37:53.947, 1560433073947
69, -923.53, -668.38, -1659.89, -2018.97, -1141.93, -1569.41, -809.74, 840.72, 0.000, 0.000, 0.000, 16:37:53.947, 1560433073947
70, -923.89, -668.65, -1660.20, -2020.28, -1143.65, -1570.72, -810.74, 840.11, 0.000, 0.000, 0.000, 16:37:53.947, 1560433073947
71, -922.99, -668.18, -1658.32, -2018.21, -1143.49, -1568.51, -810.16, 839.51, 0.000, 0.000, 0.000, 16:37:53.948, 1560433073948
72, -922.17, -667.24, -1656.98, -2016.02, -1142.76, -1566.28, -807.90, 836.20, 0.000, 0.000, 0.000, 16:37:53.948, 1560433073948
73, -922.03, -668.56, -1658.41, -2016.22, -1143.22, -1566.34, -808.60, 836.31, 0.000, 0.000, 0.000, 16:37:53.948, 1560433073948
74, -921.90, -668.00, -1659.71, -2017.69, -1143.25, -1567.62, -808.84, 837.81, 0.000, 0.000, 0.000, 16:37:53.948, 1560433073948
75, -923.26, -668.74, -1660.22, -2019.55, -1145.24, -1569.43, -810.47, 838.53, 0.000, 0.000, 0.000, 16:37:53.948, 1560433073948
76, -923.80, -669.03, -1660.42, -2019.61, -1142.82, -1569.83, -809.45, 837.39, 0.004, 0.052, -1.034, 16:37:53.948, 1560433073948
77, -921.65, -668.56, -1659.80, -2018.07, -1141.70, -1568.02, -808.80, 835.04, 0.000, 0.000, 0.000, 16:37:53.948, 1560433073948
78, -922.01, -669.28, -1659.82, -2017.89, -1141.39, -1567.39, -809.38, 837.27, 0.000, 0.000, 0.000, 16:37:53.948, 1560433073948
79, -924.07, -669.55, -1660.20, -2018.74, -1142.67, -1568.53, -811.08, 839.04, 0.000, 0.000, 0.000, 16:37:53.949, 1560433073949
80, -925.14, -669.79, -1659.77, -2020.31, -1142.15, -1569.74, -811.48, 838.57, 0.000, 0.000, 0.000, 16:37:53.949, 1560433073949
81, -924.62, -669.43, -1657.63, -2019.59, -1143.27, -1569.05, -811.68, 838.48, 0.000, 0.000, 0.000, 16:37:53.949, 1560433073949
82, -921.54, -669.48, -1657.47, -2017.36, -1141.57, -1567.46, -811.82, 837.48, 0.000, 0.000, 0.000, 16:37:53.949, 1560433073949
83, -922.23, -669.52, -1658.30, -2017.78, -1142.82, -1567.57, -809.62, 836.94, 0.000, 0.000, 0.000, 16:37:53.949, 1560433073949
84, -922.93, -669.86, -1659.89, -2020.02, -1144.25, -1569.58, -809.40, 839.17, 0.000, 0.000, 0.000, 16:37:53.949, 1560433073949
85, -921.85, -668.79, -1659.26, -2020.87, -1144.39, -1570.72, -812.93, 838.28, 0.000, 0.000, 0.000, 16:37:53.949, 1560433073949
86, -922.68, -668.21, -1659.93, -2021.09, -1142.87, -1570.84, -811.86, 837.54, 0.004, 0.050, -1.034, 16:37:53.949, 1560433073949
87, -921.18, -667.85, -1657.85, -2017.38, -1143.25, -1567.42, -810.27, 836.94, 0.000, 0.000, 0.000, 16:37:53.949, 1560433073949
88, -920.69, -668.85, -1658.54, -2016.75, -1143.56, -1566.92, -810.83, 837.54, 0.000, 0.000, 0.000, 16:37:53.949, 1560433073949
89, -922.28, -669.64, -1660.71, -2018.88, -1143.90, -1568.06, -812.35, 840.25, 0.000, 0.000, 0.000, 16:37:53.950, 1560433073950
90, -924.36, -669.10, -1661.09, -2021.58, -1143.40, -1570.63, -812.91, 839.84, 0.000, 0.000, 0.000, 16:37:53.950, 1560433073950
91, -923.42, -669.08, -1659.93, -2021.20, -1142.76, -1570.59, -812.06, 838.59, 0.000, 0.000, 0.000, 16:37:53.950, 1560433073950
92, -922.32, -668.70, -1658.12, -2018.72, -1142.17, -1568.73, -812.82, 837.99, 0.000, 0.000, 0.000, 16:37:53.950, 1560433073950
93, -920.98, -669.23, -1657.94, -2017.49, -1143.67, -1567.62, -809.98, 834.90, 0.000, 0.000, 0.000, 16:37:53.950, 1560433073950
94, -922.08, -669.14, -1659.42, -2018.41, -1143.20, -1568.33, -810.83, 838.48, 0.000, 0.000, 0.000, 16:37:53.950, 1560433073950
95, -922.99, -670.19, -1660.56, -2020.98, -1143.65, -1570.57, -812.66, 838.53, 0.000, 0.000, 0.000, 16:37:53.950, 1560433073950
96, -924.27, -669.52, -1659.48, -2020.53, -1142.13, -1569.87, -811.97, 838.82, 0.008, 0.050, -1.034, 16:37:53.950, 1560433073950
97, -923.46, -669.19, -1658.43, -2019.14, -1142.84, -1568.58, -810.68, 838.32, 0.000, 0.000, 0.000, 16:37:53.950, 1560433073950
98, -923.06, -668.59, -1657.74, -2018.52, -1144.63, -1568.13, -809.69, 838.37, 0.000, 0.000, 0.000, 16:37:53.951, 1560433073951
99, -923.44, -667.98, -1658.30, -2019.08, -1145.06, -1569.23, -811.23, 840.63, 0.000, 0.000, 0.000, 16:37:53.951, 1560433073951
100, -924.49, -669.55, -1659.93, -2021.07, -1144.59, -1571.44, -812.04, 838.66, 0.000, 0.000, 0.000, 16:37:53.951, 1560433073951
101, -925.09, -669.99, -1659.66, -2020.46, -1143.11, -1570.59, -813.38, 839.15, 0.000, 0.000, 0.000, 16:37:53.951, 1560433073951
102, -924.45, -668.29, -1659.44, -2018.50, -1141.88, -1569.41, -811.39, 836.89, 0.000, 0.000, 0.000, 16:37:53.951, 1560433073951
103, -921.92, -667.78, -1659.48, -2018.18, -1141.15, -1569.03, -810.72, 836.83, 0.000, 0.000, 0.000, 16:37:53.952, 1560433073952
104, -922.32, -668.32, -1660.09, -2019.88, -1144.28, -1570.05, -812.42, 838.77, 0.000, 0.000, 0.000, 16:37:53.952, 1560433073952
105, -925.47, -668.83, -1661.67, -2022.03, -1145.50, -1571.39, -813.76, 839.15, 0.000, 0.000, 0.000, 16:37:53.952, 1560433073952
106, -923.35, -668.76, -1660.51, -2020.91, -1144.81, -1570.46, -813.49, 837.99, 0.012, 0.056, -1.034, 16:37:53.952, 1560433073952
107, -922.19, -669.08, -1657.61, -2018.34, -1143.02, -1568.11, -810.63, 836.00, 0.000, 0.000, 0.000, 16:37:53.952, 1560433073952
108, -922.55, -669.52, -1657.38, -2017.78, -1142.02, -1567.33, -810.05, 837.74, 0.000, 0.000, 0.000, 16:37:53.952, 1560433073952
109, -923.64, -668.67, -1660.02, -2018.94, -1144.05, -1569.20, -809.69, 837.90, 0.000, 0.000, 0.000, 16:37:53.953, 1560433073953
110, -925.27, -668.90, -1660.47, -2020.80, -1145.91, -1570.12, -810.68, 838.53, 0.000, 0.000, 0.000, 16:37:53.953, 1560433073953
111, -926.41, -669.12, -1660.60, -2020.84, -1146.15, -1570.86, -810.52, 838.17, 0.000, 0.000, 0.000, 16:37:53.953, 1560433073953
112, -923.62, -668.81, -1659.64, -2018.23, -1142.82, -1568.73, -811.57, 836.63, 0.000, 0.000, 0.000, 16:37:53.953, 1560433073953
113, -923.86, -668.36, -1658.72, -2016.69, -1142.87, -1567.46, -810.50, 837.39, 0.000, 0.000, 0.000, 16:37:53.954, 1560433073954
114, -924.45, -669.57, -1660.44, -2019.50, -1144.28, -1569.81, -811.03, 838.73, 0.000, 0.000, 0.000, 16:37:53.954, 1560433073954
115, -922.95, -669.70, -1662.12, -2022.52, -1144.68, -1571.19, -813.54, 839.31, 0.000, 0.000, 0.000, 16:37:53.954, 1560433073954
116, -924.18, -669.46, -1661.18, -2021.98, -1145.04, -1570.97, -811.77, 838.97, 0.008, 0.048, -1.034, 16:37:53.955, 1560433073955
117, -923.37, -669.39, -1659.19, -2019.35, -1144.66, -1569.00, -811.79, 837.97, 0.000, 0.000, 0.000, 16:37:53.955, 1560433073955
118, -923.62, -669.12, -1659.01, -2018.36, -1144.12, -1568.53, -810.81, 838.66, 0.000, 0.000, 0.000, 16:37:53.955, 1560433073955
119, -923.28, -668.97, -1660.38, -2019.86, -1144.19, -1570.21, -811.90, 839.71, 0.000, 0.000, 0.000, 16:37:53.955, 1560433073955
120, -922.70, -670.15, -1660.56, -2021.72, -1145.33, -1570.90, -813.18, 839.98, 0.000, 0.000, 0.000, 16:37:53.955, 1560433073955
121, -923.91, -669.79, -1660.22, -2020.60, -1146.94, -1569.74, -812.20, 839.69, 0.000, 0.000, 0.000, 16:37:54.366, 1560433074366
122, -923.82, -669.37, -1658.77, -2018.52, -1143.38, -1568.29, -812.31, 837.63, 0.000, 0.000, 0.000, 16:37:54.367, 1560433074367
123, -923.66, -669.26, -1657.25, -2017.18, -1141.62, -1567.28, -810.14, 835.93, 0.000, 0.000, 0.000, 16:37:54.367, 1560433074367
124, -923.73, -669.97, -1659.66, -2019.93, -1142.60, -1569.52, -811.35, 837.18, 0.000, 0.000, 0.000, 16:37:54.367, 1560433074367
125, -922.84, -669.55, -1660.62, -2022.34, -1144.68, -1571.62, -811.17, 839.96, 0.004, 0.052, -1.030, 16:37:54.367, 1560433074367
126, -923.37, -669.79, -1659.66, -2021.80, -1143.76, -1571.08, -809.71, 840.11, 0.000, 0.000, 0.000, 16:37:54.367, 1560433074367
127, -923.84, -669.35, -1659.42, -2019.68, -1144.79, -1569.49, -810.79, 837.14, 0.000, 0.000, 0.000, 16:37:54.367, 1560433074367
128, -923.31, -669.10, -1658.68, -2018.68, -1145.66, -1568.58, -811.35, 839.26, 0.000, 0.000, 0.000, 16:37:54.367, 1560433074367
129, -923.44, -668.79, -1658.88, -2019.86, -1145.08, -1569.47, -810.74, 840.51, 0.000, 0.000, 0.000, 16:37:54.367, 1560433074367
130, -923.22, -670.19, -1660.15, -2021.89, -1146.04, -1571.42, -812.17, 839.69, 0.000, 0.000, 0.000, 16:37:54.367, 1560433074367
131, -924.18, -669.86, -1659.89, -2021.38, -1143.34, -1571.08, -812.96, 838.41, 0.000, 0.000, 0.000, 16:37:54.367, 1560433074367
132, -922.46, -669.77, -1658.43, -2018.94, -1141.82, -1569.45, -811.73, 838.15, 0.000, 0.000, 0.000, 16:37:54.367, 1560433074367
133, -923.31, -668.85, -1658.25, -2017.60, -1141.62, -1568.44, -811.35, 839.33, 0.000, 0.000, 0.000, 16:37:54.368, 1560433074368
134, -923.60, -669.32, -1660.38, -2019.52, -1141.30, -1569.70, -810.92, 840.74, 0.000, 0.000, 0.000, 16:37:54.368, 1560433074368
135, -923.73, -669.68, -1661.56, -2022.52, -1142.15, -1571.84, -812.33, 840.22, 0.004, 0.052, -1.024, 16:37:54.368, 1560433074368
136, -923.82, -668.94, -1659.17, -2021.25, -1143.31, -1570.70, -813.76, 840.49, 0.000, 0.000, 0.000, 16:37:54.369, 1560433074369
137, -923.26, -669.99, -1658.05, -2018.74, -1140.81, -1568.22, -811.12, 839.17, 0.000, 0.000, 0.000, 16:37:54.369, 1560433074369
138, -924.04, -670.02, -1658.16, -2018.12, -1139.07, -1567.48, -811.50, 838.77, 0.000, 0.000, 0.000, 16:37:54.369, 1560433074369
139, -922.79, -670.17, -1659.66, -2021.09, -1142.49, -1570.52, -814.18, 837.72, 0.000, 0.000, 0.000, 16:37:54.370, 1560433074370
140, -922.99, -670.46, -1661.32, -2023.35, -1144.10, -1573.12, -814.88, 840.16, 0.000, 0.000, 0.000, 16:37:54.370, 1560433074370
141, -924.27, -670.24, -1661.32, -2022.65, -1144.97, -1572.27, -813.18, 839.08, 0.000, 0.000, 0.000, 16:37:54.371, 1560433074371
142, -925.45, -669.08, -1659.42, -2019.66, -1144.16, -1569.70, -812.62, 837.25, 0.000, 0.000, 0.000, 16:37:54.372, 1560433074372
143, -922.12, -669.68, -1659.44, -2018.27, -1141.39, -1569.03, -812.80, 837.43, 0.000, 0.000, 0.000, 16:37:54.372, 1560433074372
144, -924.18, -669.70, -1659.15, -2019.61, -1142.49, -1569.36, -813.36, 837.90, 0.000, 0.000, 0.000, 16:37:54.373, 1560433074373
145, -924.40, -670.46, -1660.96, -2022.25, -1144.48, -1570.84, -812.60, 837.54, 0.000, 0.050, -1.030, 16:37:54.373, 1560433074373
146, -924.42, -670.64, -1661.87, -2022.72, -1145.68, -1572.00, -813.13, 837.83, 0.000, 0.000, 0.000, 16:37:54.373, 1560433074373
147, -922.81, -669.64, -1661.72, -2021.20, -1145.24, -1570.84, -813.72, 838.44, 0.000, 0.000, 0.000, 16:37:54.373, 1560433074373
148, -923.62, -669.37, -1660.98, -2020.80, -1142.26, -1570.25, -811.52, 837.94, 0.000, 0.000, 0.000, 16:37:54.374, 1560433074374
149, -922.93, -669.21, -1660.31, -2021.38, -1141.70, -1570.23, -812.62, 839.17, 0.000, 0.000, 0.000, 16:37:54.374, 1560433074374
150, -922.86, -669.90, -1661.23, -2022.54, -1143.67, -1571.75, -812.87, 839.82, 0.000, 0.000, 0.000, 16:37:54.374, 1560433074374
151, -923.33, -670.44, -1660.22, -2021.96, -1143.56, -1571.28, -811.99, 839.04, 0.000, 0.000, 0.000, 16:37:54.374, 1560433074374
152, -923.84, -669.59, -1657.87, -2020.17, -1146.20, -1569.16, -811.75, 837.77, 0.000, 0.000, 0.000, 16:37:54.375, 1560433074375
153, -921.94, -670.02, -1659.04, -2020.75, -1144.28, -1569.58, -811.86, 837.72, 0.000, 0.000, 0.000, 16:37:54.375, 1560433074375
154, -924.31, -670.11, -1661.58, -2022.74, -1145.15, -1571.26, -810.88, 838.73, 0.000, 0.000, 0.000, 16:37:54.375, 1560433074375
155, -925.36, -670.46, -1660.78, -2023.37, -1145.10, -1571.98, -814.25, 840.78, 0.002, 0.054, -1.034, 16:37:54.375, 1560433074375
156, -924.98, -671.25, -1660.22, -2023.39, -1142.42, -1572.27, -816.98, 839.89, 0.000, 0.000, 0.000, 16:37:54.375, 1560433074375
157, -923.28, -671.40, -1660.09, -2021.42, -1142.73, -1571.15, -812.98, 839.60, 0.000, 0.000, 0.000, 16:37:54.375, 1560433074375
158, -923.86, -669.48, -1659.24, -2019.79, -1143.67, -1569.52, -811.57, 836.92, 0.000, 0.000, 0.000, 16:37:54.375, 1560433074375
159, -924.89, -669.37, -1660.42, -2021.67, -1143.74, -1571.28, -813.96, 838.55, 0.000, 0.000, 0.000, 16:37:54.375, 1560433074375
160, -925.41, -669.79, -1662.28, -2024.71, -1143.54, -1573.81, -814.48, 838.73, 0.000, 0.000, 0.000, 16:37:54.375, 1560433074375
161, -924.33, -670.08, -1661.05, -2023.26, -1144.19, -1572.51, -814.21, 838.62, 0.000, 0.000, 0.000, 16:37:54.376, 1560433074376
162, -923.84, -668.85, -1659.37, -2020.62, -1143.65, -1570.12, -811.41, 839.44, 0.000, 0.000, 0.000, 16:37:54.376, 1560433074376
163, -921.70, -669.23, -1658.88, -2019.46, -1143.49, -1568.96, -810.38, 838.66, 0.000, 0.000, 0.000, 16:37:54.376, 1560433074376
164, -920.78, -669.14, -1659.64, -2020.17, -1144.32, -1569.76, -810.23, 840.09, 0.000, 0.000, 0.000, 16:37:54.376, 1560433074376
165, -923.40, -668.97, -1660.76, -2023.01, -1145.50, -1572.27, -811.19, 840.05, 0.004, 0.058, -1.032, 16:37:54.376, 1560433074376
166, -925.47, -670.31, -1661.00, -2024.29, -1145.64, -1573.54, -811.06, 838.86, 0.000, 0.000, 0.000, 16:37:54.376, 1560433074376
167, -922.37, -670.19, -1660.11, -2021.76, -1143.90, -1570.95, -811.41, 838.21, 0.000, 0.000, 0.000, 16:37:54.376, 1560433074376
168, -922.77, -669.70, -1659.59, -2020.20, -1142.31, -1569.79, -811.55, 836.63, 0.000, 0.000, 0.000, 16:37:54.376, 1560433074376
169, -922.77, -670.87, -1659.66, -2022.03, -1142.84, -1571.55, -811.23, 836.98, 0.000, 0.000, 0.000, 16:37:54.376, 1560433074376
170, -923.33, -670.15, -1660.87, -2023.77, -1142.89, -1572.27, -812.96, 840.09, 0.000, 0.000, 0.000, 16:37:54.376, 1560433074376
171, -924.00, -670.19, -1661.45, -2023.88, -1142.62, -1572.49, -813.58, 838.73, 0.000, 0.000, 0.000, 16:37:54.376, 1560433074376
172, -923.84, -669.64, -1658.72, -2021.29, -1143.43, -1569.99, -810.74, 839.40, 0.000, 0.000, 0.000, 16:37:54.376, 1560433074376
173, -922.19, -670.15, -1659.04, -2020.89, -1143.43, -1569.34, -811.17, 840.69, 0.000, 0.000, 0.000, 16:37:54.376, 1560433074376
174, -924.60, -671.60, -1659.59, -2022.32, -1143.00, -1570.72, -812.96, 839.38, 0.000, 0.000, 0.000, 16:37:54.377, 1560433074377
175, -925.41, -671.42, -1659.89, -2023.73, -1142.73, -1572.45, -814.14, 838.91, 0.002, 0.058, -1.030, 16:37:54.377, 1560433074377
176, -926.61, -671.07, -1659.30, -2023.66, -1144.68, -1572.45, -814.03, 838.15, 0.000, 0.000, 0.000, 16:37:54.380, 1560433074380
177, -923.69, -670.49, -1659.59, -2023.08, -1144.79, -1571.71, -814.12, 841.34, 0.000, 0.000, 0.000, 16:37:54.380, 1560433074380
178, -925.05, -669.81, -1658.50, -2021.69, -1144.36, -1570.52, -812.55, 839.87, 0.000, 0.000, 0.000, 16:37:54.380, 1560433074380
179, -924.87, -669.46, -1658.99, -2022.65, -1144.66, -1571.48, -811.73, 839.22, 0.000, 0.000, 0.000, 16:37:54.380, 1560433074380
180, -924.54, -669.97, -1660.38, -2024.89, -1146.58, -1573.25, -811.50, 842.95, 0.000, 0.000, 0.000, 16:37:54.380, 1560433074380
181, -924.92, -669.93, -1660.42, -2024.98, -1142.67, -1573.00, -812.28, 841.05, 0.000, 0.000, 0.000, 16:37:54.380, 1560433074380
182, -925.25, -669.86, -1659.48, -2022.59, -1143.76, -1570.68, -813.87, 838.77, 0.000, 0.000, 0.000, 16:37:54.380, 1560433074380
183, -923.82, -669.79, -1658.99, -2021.40, -1141.79, -1569.52, -812.89, 840.22, 0.000, 0.000, 0.000, 16:37:54.380, 1560433074380
184, -924.69, -670.46, -1659.57, -2022.90, -1142.96, -1571.17, -813.13, 840.63, 0.000, 0.000, 0.000, 16:37:54.381, 1560433074381
185, -924.56, -672.36, -1660.44, -2025.45, -1145.06, -1573.94, -814.94, 841.12, -0.002, 0.056, -1.040, 16:37:54.381, 1560433074381
186, -924.58, -671.71, -1659.37, -2025.09, -1147.94, -1573.72, -813.40, 838.55, 0.000, 0.000, 0.000, 16:37:54.381, 1560433074381
187, -924.71, -671.22, -1658.12, -2023.06, -1145.77, -1570.99, -813.36, 837.88, 0.000, 0.000, 0.000, 16:37:54.381, 1560433074381
188, -924.42, -671.16, -1658.10, -2021.87, -1144.52, -1569.79, -813.18, 839.55, 0.000, 0.000, 0.000, 16:37:54.381, 1560433074381
189, -925.05, -672.16, -1659.75, -2023.30, -1143.92, -1571.10, -813.78, 839.96, 0.000, 0.000, 0.000, 16:37:54.381, 1560433074381
190, -926.57, -671.13, -1659.93, -2025.22, -1145.97, -1573.18, -815.41, 840.74, 0.000, 0.000, 0.000, 16:37:54.381, 1560433074381
191, -924.38, -669.93, -1659.17, -2025.00, -1144.16, -1572.47, -815.19, 839.40, 0.000, 0.000, 0.000, 16:37:54.381, 1560433074381
192, -926.26, -671.16, -1658.75, -2023.39, -1144.23, -1571.37, -814.21, 838.86, 0.000, 0.000, 0.000, 16:37:54.381, 1560433074381
193, -924.58, -672.05, -1658.97, -2023.48, -1145.17, -1571.35, -812.62, 837.68, 0.000, 0.000, 0.000, 16:37:54.381, 1560433074381
194, -922.39, -671.92, -1659.44, -2024.49, -1145.24, -1572.29, -814.21, 838.59, 0.000, 0.000, 0.000, 16:37:54.383, 1560433074383
195, -925.30, -672.32, -1660.49, -2025.34, -1145.59, -1573.36, -814.92, 841.07, 0.004, 0.054, -1.038, 16:37:54.383, 1560433074383
196, -926.06, -671.94, -1659.91, -2024.24, -1143.98, -1572.36, -814.32, 839.82, 0.000, 0.000, 0.000, 16:37:54.383, 1560433074383
197, -924.69, -671.13, -1658.70, -2023.01, -1142.93, -1571.71, -813.51, 838.41, 0.000, 0.000, 0.000, 16:37:54.383, 1560433074383
198, -923.75, -671.16, -1657.78, -2022.07, -1145.26, -1571.06, -813.63, 839.24, 0.000, 0.000, 0.000, 16:37:54.383, 1560433074383
199, -923.73, -671.27, -1659.37, -2023.44, -1145.10, -1572.00, -815.39, 840.65, 0.000, 0.000, 0.000, 16:37:54.383, 1560433074383
200, -925.23, -671.20, -1660.65, -2025.90, -1144.01, -1573.81, -816.31, 840.31, 0.000, 0.000, 0.000, 16:37:54.384, 1560433074384
201, -924.74, -670.49, -1659.91, -2025.54, -1145.01, -1573.21, -815.30, 840.25, 0.000, 0.000, 0.000, 16:37:54.384, 1560433074384
202, -924.49, -670.60, -1659.30, -2024.40, -1142.49, -1572.04, -813.89, 839.31, 0.000, 0.000, 0.000, 16:37:54.384, 1560433074384
203, -924.58, -670.37, -1657.81, -2023.06, -1144.57, -1571.08, -812.87, 839.60, 0.000, 0.000, 0.000, 16:37:54.384, 1560433074384
204, -924.27, -671.20, -1658.88, -2024.04, -1146.20, -1572.58, -812.62, 840.02, 0.000, 0.000, 0.000, 16:37:54.384, 1560433074384
205, -924.76, -671.51, -1660.29, -2026.32, -1148.92, -1574.10, -814.50, 841.27, 0.002, 0.056, -1.032, 16:37:54.384, 1560433074384
206, -925.43, -670.91, -1659.82, -2025.81, -1149.04, -1573.27, -815.06, 841.83, 0.000, 0.000, 0.000, 16:37:54.384, 1560433074384
207, -924.56, -670.91, -1658.10, -2023.30, -1144.92, -1571.37, -813.78, 841.03, 0.000, 0.000, 0.000, 16:37:54.384, 1560433074384
208, -924.87, -671.13, -1657.63, -2021.98, -1142.87, -1570.37, -811.84, 840.72, 0.000, 0.000, 0.000, 16:37:54.384, 1560433074384
209, -924.47, -671.04, -1659.21, -2023.66, -1144.88, -1572.45, -814.41, 841.34, 0.000, 0.000, 0.000, 16:37:54.384, 1560433074384
210, -924.65, -671.76, -1661.36, -2026.39, -1146.47, -1574.43, -813.54, 842.57, 0.000, 0.000, 0.000, 16:37:54.384, 1560433074384
211, -923.48, -672.52, -1660.42, -2026.32, -1146.67, -1574.08, -814.10, 841.23, 0.000, 0.000, 0.000, 16:37:54.384, 1560433074384
212, -923.69, -671.60, -1658.75, -2024.15, -1146.53, -1572.20, -815.35, 839.82, 0.000, 0.000, 0.000, 16:37:54.384, 1560433074384
213, -924.60, -669.66, -1658.23, -2022.86, -1146.53, -1570.79, -813.80, 840.98, 0.000, 0.000, 0.000, 16:37:54.384, 1560433074384
214, -925.41, -671.74, -1660.24, -2024.84, -1145.95, -1572.65, -812.73, 841.86, 0.000, 0.000, 0.000, 16:37:54.384, 1560433074384
215, -926.70, -673.10, -1660.67, -2027.50, -1144.16, -1574.95, -815.77, 840.89, 0.004, 0.056, -1.038, 16:37:54.384, 1560433074384
216, -924.16, -672.21, -1659.89, -2027.21, -1143.87, -1574.55, -816.93, 838.59, 0.000, 0.000, 0.000, 16:37:54.384, 1560433074384
217, -923.51, -672.54, -1658.10, -2024.26, -1143.49, -1572.24, -817.05, 836.20, 0.000, 0.000, 0.000, 16:37:54.384, 1560433074384
218, -925.27, -672.54, -1657.29, -2023.15, -1145.10, -1571.22, -812.69, 837.07, 0.000, 0.000, 0.000, 16:37:54.384, 1560433074384
219, -927.02, -672.83, -1661.00, -2025.54, -1147.11, -1573.65, -813.20, 840.18, 0.000, 0.000, 0.000, 16:37:54.384, 1560433074384
220, -926.28, -672.56, -1661.00, -2027.21, -1147.25, -1574.61, -814.59, 842.50, 0.000, 0.000, 0.000, 16:37:54.384, 1560433074384
221, -925.50, -671.83, -1660.13, -2026.23, -1146.80, -1573.61, -815.88, 842.17, 0.000, 0.000, 0.000, 16:37:54.385, 1560433074385
222, -925.07, -672.39, -1660.31, -2025.16, -1145.19, -1572.80, -814.07, 839.31, 0.000, 0.000, 0.000, 16:37:54.385, 1560433074385
223, -923.78, -671.87, -1659.37, -2024.49, -1143.83, -1571.64, -814.32, 838.91, 0.000, 0.000, 0.000, 16:37:54.385, 1560433074385
224, -924.22, -670.95, -1660.18, -2024.69, -1146.38, -1572.36, -813.98, 839.82, 0.000, 0.000, 0.000, 16:37:54.385, 1560433074385
225, -925.56, -670.98, -1660.67, -2026.14, -1146.80, -1574.61, -816.64, 839.91, 0.008, 0.052, -1.036, 16:37:54.385, 1560433074385
226, -926.52, -671.42, -1659.53, -2026.16, -1144.92, -1573.99, -815.39, 840.89, 0.000, 0.000, 0.000, 16:37:54.385, 1560433074385
227, -924.29, -670.49, -1656.87, -2023.91, -1144.14, -1571.37, -813.42, 840.49, 0.000, 0.000, 0.000, 16:37:54.385, 1560433074385
228, -925.12, -669.32, -1656.73, -2022.52, -1144.81, -1569.92, -810.83, 841.34, 0.000, 0.000, 0.000, 16:37:54.388, 1560433074388
229, -925.72, -671.63, -1659.30, -2025.58, -1147.18, -1572.58, -814.54, 842.33, 0.000, 0.000, 0.000, 16:37:54.388, 1560433074388
230, -926.75, -672.03, -1659.59, -2026.81, -1145.86, -1574.19, -815.03, 840.40, 0.000, 0.000, 0.000, 16:37:54.388, 1560433074388
231, -925.41, -671.74, -1660.04, -2026.41, -1143.78, -1574.46, -815.10, 839.78, 0.000, 0.000, 0.000, 16:37:54.388, 1560433074388
232, -923.66, -672.54, -1659.84, -2025.58, -1145.24, -1572.87, -813.58, 841.52, 0.000, 0.000, 0.000, 16:37:54.389, 1560433074389
233, -923.33, -672.32, -1659.24, -2024.64, -1146.04, -1571.44, -813.49, 839.91, 0.000, 0.000, 0.000, 16:37:54.389, 1560433074389
234, -924.56, -672.07, -1660.09, -2025.05, -1144.52, -1572.02, -813.96, 841.59, 0.000, 0.000, 0.000, 16:37:54.389, 1560433074389
235, -925.81, -672.30, -1661.05, -2027.12, -1146.78, -1573.97, -815.57, 841.39, 0.012, 0.054, -1.038, 16:37:54.389, 1560433074389
236, -926.12, -673.66, -1661.23, -2027.68, -1147.63, -1574.73, -815.44, 840.74, 0.000, 0.000, 0.000, 16:37:54.389, 1560433074389
237, -926.41, -671.22, -1658.57, -2024.93, -1146.40, -1572.20, -814.27, 840.20, 0.000, 0.000, 0.000, 16:37:54.390, 1560433074390
238, -929.25, -669.05, -1657.76, -2023.26, -1144.43, -1570.68, -814.39, 839.76, 0.000, 0.000, 0.000, 16:37:54.391, 1560433074391
239, -925.03, -670.08, -1659.33, -2024.78, -1145.12, -1571.91, -813.09, 839.20, 0.000, 0.000, 0.000, 16:37:54.392, 1560433074392
240, -924.29, -671.83, -1661.67, -2028.22, -1147.29, -1574.99, -813.78, 839.33, 0.000, 0.000, 0.000, 16:37:54.392, 1560433074392
241, -923.84, -673.41, -1661.11, -2027.73, -1145.71, -1574.37, -815.06, 838.26, 0.000, 0.000, 0.000, 16:37:54.845, 1560433074845
242, -925.09, -673.06, -1659.82, -2024.93, -1143.25, -1572.36, -814.88, 839.00, 0.000, 0.000, 0.000, 16:37:54.845, 1560433074845
243, -926.50, -672.81, -1660.04, -2024.78, -1142.91, -1572.60, -812.20, 839.98, 0.000, 0.000, 0.000, 16:37:54.845, 1560433074845
244, -924.85, -674.11, -1660.15, -2025.87, -1143.98, -1573.21, -812.15, 839.29, 0.010, 0.054, -1.036, 16:37:54.845, 1560433074845
245, -924.11, -673.46, -1660.76, -2027.39, -1143.78, -1574.59, -814.39, 841.27, 0.000, 0.000, 0.000, 16:37:54.845, 1560433074845
246, -926.86, -672.03, -1659.30, -2026.72, -1145.24, -1573.88, -814.52, 840.27, 0.000, 0.000, 0.000, 16:37:54.846, 1560433074846
247, -926.01, -673.39, -1659.10, -2025.90, -1145.62, -1573.03, -812.46, 839.89, 0.000, 0.000, 0.000, 16:37:54.846, 1560433074846
248, -925.88, -673.19, -1659.44, -2024.33, -1145.46, -1572.13, -813.40, 840.56, 0.000, 0.000, 0.000, 16:37:54.846, 1560433074846
249, -928.31, -672.23, -1660.11, -2025.27, -1147.02, -1572.60, -813.40, 840.54, 0.000, 0.000, 0.000, 16:37:54.846, 1560433074846
250, -927.84, -671.92, -1660.27, -2026.57, -1146.67, -1573.70, -815.30, 840.56, 0.000, 0.000, 0.000, 16:37:54.846, 1560433074846
251, -925.30, -671.67, -1659.91, -2026.68, -1144.52, -1573.43, -813.96, 840.29, 0.000, 0.000, 0.000, 16:37:54.846, 1560433074846
252, -926.21, -672.88, -1659.21, -2025.20, -1144.68, -1572.83, -814.32, 840.38, 0.000, 0.000, 0.000, 16:37:54.846, 1560433074846
253, -926.79, -671.94, -1658.43, -2024.33, -1143.98, -1571.75, -815.19, 838.50, 0.000, 0.000, 0.000, 16:37:54.846, 1560433074846
254, -926.86, -673.23, -1660.04, -2026.57, -1145.42, -1573.38, -813.87, 839.49, 0.016, 0.050, -1.032, 16:37:54.846, 1560433074846
255, -928.13, -673.95, -1661.16, -2028.24, -1147.07, -1575.08, -815.57, 840.63, 0.000, 0.000, 0.000, 16:37:54.846, 1560433074846
0, -926.19, -673.37, -1659.91, -2026.65, -1146.24, -1573.94, -816.62, 839.78, 0.000, 0.000, 0.000, 16:37:54.846, 1560433074846
1, -925.68, -673.41, -1659.37, -2024.80, -1147.56, -1572.18, -815.57, 840.83, 0.000, 0.000, 0.000, 16:37:54.846, 1560433074846
2, -928.02, -673.44, -1658.99, -2024.11, -1145.30, -1571.55, -812.78, 839.15, 0.000, 0.000, 0.000, 16:37:54.847, 1560433074847
3, -925.94, -673.61, -1657.36, -2024.82, -1146.04, -1572.18, -815.21, 839.69, 0.000, 0.000, 0.000, 16:37:54.847, 1560433074847
4, -926.30, -675.16, -1660.60, -2028.89, -1147.58, -1575.80, -817.34, 840.69, 0.000, 0.000, 0.000, 16:37:54.847, 1560433074847
5, -929.41, -675.16, -1660.78, -2028.53, -1146.18, -1575.42, -815.30, 842.68, 0.000, 0.000, 0.000, 16:37:54.847, 1560433074847
6, -926.79, -673.44, -1659.80, -2025.60, -1144.23, -1572.09, -815.50, 840.47, 0.000, 0.000, 0.000, 16:37:54.847, 1560433074847
7, -924.00, -674.37, -1660.73, -2025.00, -1142.31, -1571.22, -813.09, 840.96, 0.000, 0.000, 0.000, 16:37:54.847, 1560433074847
8, -926.01, -675.42, -1661.79, -2026.03, -1143.81, -1571.26, -813.31, 841.97, 0.008, 0.056, -1.030, 16:37:54.847, 1560433074847
9, -927.13, -675.25, -1661.07, -2026.90, -1147.78, -1572.18, -814.97, 840.47, 0.000, 0.000, 0.000, 16:37:54.848, 1560433074848
10, -927.02, -675.49, -1660.78, -2027.10, -1147.90, -1572.85, -814.97, 841.32, 0.000, 0.000, 0.000, 16:37:54.848, 1560433074848
11, -926.17, -675.83, -1659.48, -2025.18, -1145.57, -1571.19, -814.83, 841.10, 0.000, 0.000, 0.000, 16:37:54.848, 1560433074848
12, -924.11, -676.30, -1660.47, -2025.49, -1146.98, -1570.14, -815.59, 841.12, 0.000, 0.000, 0.000, 16:37:54.848, 1560433074848
13, -926.08, -677.46, -1661.38, -2026.90, -1146.76, -1571.33, -816.00, 841.07, 0.000, 0.000, 0.000, 16:37:54.848, 1560433074848
14, -928.20, -678.08, -1662.25, -2029.02, -1146.56, -1573.61, -816.78, 843.02, 0.000, 0.000, 0.000, 16:37:54.848, 1560433074848
15, -929.32, -678.17, -1662.12, -2028.64, -1146.78, -1572.96, -816.00, 842.75, 0.000, 0.000, 0.000, 16:37:54.848, 1560433074848
16, -927.13, -677.64, -1661.14, -2026.86, -1144.83, -1571.48, -813.98, 841.27, 0.000, 0.000, 0.000, 16:37:54.848, 1560433074848
17, -927.93, -676.12, -1658.86, -2024.38, -1144.83, -1568.94, -813.18, 838.03, 0.000, 0.000, 0.000, 16:37:54.848, 1560433074848
18, -928.07, -675.94, -1659.59, -2025.54, -1145.73, -1569.79, -816.42, 840.63, 0.004, 0.058, -1.032, 16:37:54.848, 1560433074848
19, -929.03, -675.56, -1660.31, -2027.84, -1145.01, -1571.44, -817.16, 843.11, 0.000, 0.000, 0.000, 16:37:54.848, 1560433074848
20, -927.98, -676.41, -1660.15, -2028.15, -1145.24, -1571.80, -816.00, 842.91, 0.000, 0.000, 0.000, 16:37:54.849, 1560433074849
21, -926.41, -674.96, -1658.21, -2025.60, -1146.06, -1570.28, -815.70, 841.32, 0.000, 0.000, 0.000, 16:37:54.849, 1560433074849
22, -925.70, -674.67, -1657.96, -2023.97, -1144.95, -1569.61, -816.58, 838.26, 0.000, 0.000, 0.000, 16:37:54.849, 1560433074849
23, -924.92, -677.10, -1658.88, -2025.76, -1144.88, -1570.66, -813.69, 839.35, 0.000, 0.000, 0.000, 16:37:54.849, 1560433074849
24, -925.38, -678.89, -1661.09, -2028.02, -1144.41, -1572.67, -814.88, 840.02, 0.000, 0.000, 0.000, 16:37:54.849, 1560433074849
25, -928.29, -679.25, -1661.76, -2028.98, -1146.47, -1573.76, -815.66, 840.51, 0.000, 0.000, 0.000, 16:37:54.849, 1560433074849
26, -927.80, -676.41, -1659.62, -2026.54, -1146.35, -1571.55, -817.65, 840.83, 0.000, 0.000, 0.000, 16:37:54.849, 1560433074849
27, -926.86, -676.27, -1659.55, -2025.74, -1145.66, -1570.97, -815.39, 839.11, 0.000, 0.000, 0.000, 16:37:54.849, 1560433074849
28, -928.96, -676.12, -1661.00, -2026.48, -1145.26, -1572.49, -814.59, 838.55, 0.004, 0.056, -1.032, 16:37:54.849, 1560433074849
29, -926.68, -676.50, -1661.54, -2027.64, -1147.14, -1573.92, -815.28, 841.10, 0.000, 0.000, 0.000, 16:37:54.849, 1560433074849
30, -926.19, -677.41, -1661.54, -2028.33, -1148.59, -1574.17, -816.26, 843.73, 0.000, 0.000, 0.000, 16:37:54.849, 1560433074849
31, -925.45, -677.66, -1660.22, -2026.70, -1144.54, -1572.42, -815.68, 842.30, 0.000, 0.000, 0.000, 16:37:54.850, 1560433074850
32, -924.20, -676.61, -1659.08, -2024.38, -1143.54, -1570.41, -817.09, 839.87, 0.000, 0.000, 0.000, 16:37:54.850, 1560433074850
33, -924.36, -676.41, -1660.80, -2026.48, -1147.56, -1571.89, -817.11, 840.11, 0.000, 0.000, 0.000, 16:37:54.850, 1560433074850
34, -925.25, -677.53, -1662.70, -2029.56, -1150.38, -1573.94, -816.24, 841.79, 0.000, 0.000, 0.000, 16:37:54.850, 1560433074850
35, -929.43, -676.34, -1661.20, -2029.02, -1146.04, -1573.50, -817.83, 841.27, 0.000, 0.000, 0.000, 16:37:54.850, 1560433074850
36, -927.89, -675.34, -1659.15, -2026.97, -1146.13, -1571.42, -817.27, 839.22, 0.000, 0.000, 0.000, 16:37:54.850, 1560433074850
37, -926.90, -674.75, -1658.16, -2025.38, -1147.94, -1570.70, -815.48, 840.54, 0.000, 0.000, 0.000, 16:37:54.850, 1560433074850
38, -927.06, -675.04, -1660.24, -2026.54, -1144.83, -1572.36, -814.54, 842.59, 0.008, 0.056, -1.030, 16:37:54.850, 1560433074850
39, -925.47, -675.89, -1661.54, -2029.23, -1145.46, -1574.21, -814.74, 841.81, 0.000, 0.000, 0.000, 16:37:54.850, 1560433074850
40, -927.17, -674.89, -1661.45, -2028.71, -1144.90, -1574.35, -815.70, 840.60, 0.000, 0.000, 0.000, 16:37:54.850, 1560433074850
41, -927.55, -674.67, -1659.51, -2025.78, -1143.60, -1571.22, -815.66, 839.96, 0.000, 0.000, 0.000, 16:37:54.850, 1560433074850
42, -929.25, -674.40, -1659.15, -2024.53, -1144.95, -1570.12, -814.68, 842.21, 0.000, 0.000, 0.000, 16:37:54.851, 1560433074851
43, -928.76, -675.27, -1660.69, -2026.16, -1146.29, -1572.24, -815.86, 842.86, 0.000, 0.000, 0.000, 16:37:54.852, 1560433074852
44, -926.97, -674.26, -1661.92, -2028.73, -1147.45, -1574.68, -815.19, 844.18, 0.000, 0.000, 0.000, 16:37:54.852, 1560433074852
45, -925.74, -673.59, -1661.32, -2029.14, -1148.83, -1575.26, -816.55, 844.02, 0.000, 0.000, 0.000, 16:37:54.852, 1560433074852
46, -927.15, -672.21, -1659.15, -2026.43, -1146.80, -1573.12, -815.97, 840.96, 0.000, 0.000, 0.000, 16:37:54.853, 1560433074853
47, -927.06, -674.42, -1660.47, -2026.14, -1146.76, -1573.43, -816.71, 840.96, 0.000, 0.000, 0.000, 16:37:54.853, 1560433074853
48, -927.15, -675.02, -1662.10, -2027.66, -1145.33, -1574.23, -817.38, 840.54, 0.006, 0.052, -1.034, 16:37:54.853, 1560433074853
49, -927.71, -674.64, -1662.52, -2029.43, -1146.80, -1575.17, -817.96, 841.10, 0.000, 0.000, 0.000, 16:37:54.853, 1560433074853
50, -925.65, -674.53, -1661.81, -2028.55, -1147.67, -1575.17, -815.88, 843.62, 0.000, 0.000, 0.000, 16:37:54.853, 1560433074853
51, -925.72, -672.43, -1661.16, -2026.72, -1146.64, -1573.21, -815.75, 841.07, 0.000, 0.000, 0.000, 16:37:54.853, 1560433074853
52, -925.59, -673.15, -1661.05, -2026.07, -1146.06, -1572.60, -816.33, 839.64, 0.000, 0.000, 0.000, 16:37:54.853, 1560433074853
53, -926.50, -674.51, -1661.67, -2026.95, -1147.36, -1573.36, -816.38, 839.29, 0.000, 0.000, 0.000, 16:37:54.853, 1560433074853
54, -925.81, -673.73, -1661.83, -2029.23, -1147.27, -1575.10, -818.34, 843.40, 0.000, 0.000, 0.000, 16:37:54.854, 1560433074854
55, -926.61, -672.65, -1661.34, -2029.45, -1148.34, -1575.51, -814.83, 842.19, 0.000, 0.000, 0.000, 16:37:54.854, 1560433074854
56, -926.30, -674.04, -1661.16, -2028.15, -1146.69, -1573.74, -814.92, 839.71, 0.000, 0.000, 0.000, 16:37:54.854, 1560433074854
57, -925.56, -674.42, -1661.43, -2027.19, -1147.29, -1573.23, -815.88, 840.43, 0.000, 0.000, 0.000, 16:37:54.854, 1560433074854
58, -926.08, -675.45, -1661.79, -2027.84, -1147.36, -1574.32, -815.26, 841.45, 0.004, 0.052, -1.030, 16:37:54.854, 1560433074854
59, -926.37, -675.07, -1662.43, -2029.65, -1147.56, -1576.40, -816.98, 839.64, 0.000, 0.000, 0.000, 16:37:54.855, 1560433074855
60, -926.08, -672.99, -1662.43, -2029.05, -1147.02, -1575.24, -817.58, 840.94, 0.000, 0.000, 0.000, 16:37:54.855, 1560433074855
61, -927.62, -673.93, -1662.37, -2027.28, -1146.60, -1574.21, -816.22, 841.03, 0.000, 0.000, 0.000, 16:37:54.856, 1560433074856
62, -927.75, -673.70, -1661.72, -2026.50, -1146.26, -1573.63, -814.74, 842.17, 0.000, 0.000, 0.000, 16:37:54.856, 1560433074856
63, -926.82, -673.66, -1661.41, -2026.77, -1147.56, -1573.70, -814.99, 840.22, 0.000, 0.000, 0.000, 16:37:54.856, 1560433074856
64, -928.87, -673.21, -1661.52, -2029.00, -1149.55, -1574.57, -816.33, 842.84, 0.000, 0.000, 0.000, 16:37:54.856, 1560433074856
65, -927.96, -673.70, -1662.05, -2029.72, -1147.72, -1575.66, -815.59, 842.17, 0.000, 0.000, 0.000, 16:37:54.856, 1560433074856
66, -926.97, -673.06, -1661.23, -2028.13, -1146.02, -1573.92, -814.56, 841.77, 0.000, 0.000, 0.000, 16:37:54.857, 1560433074857
67, -925.97, -673.03, -1659.91, -2026.90, -1145.93, -1571.95, -816.22, 841.30, 0.000, 0.000, 0.000, 16:37:54.857, 1560433074857
68, -926.75, -673.91, -1660.65, -2028.22, -1145.82, -1573.56, -816.78, 841.05, 0.006, 0.046, -1.038, 16:37:54.857, 1560433074857
69, -928.87, -674.17, -1663.17, -2031.80, -1146.42, -1576.67, -816.69, 842.01, 0.000, 0.000, 0.000, 16:37:54.857, 1560433074857
70, -927.42, -674.44, -1662.46, -2031.19, -1147.05, -1576.22, -816.80, 842.97, 0.000, 0.000, 0.000, 16:37:54.857, 1560433074857
71, -925.18, -675.09, -1660.87, -2028.20, -1145.33, -1574.43, -817.27, 841.50, 0.000, 0.000, 0.000, 16:37:54.857, 1560433074857
72, -925.63, -674.04, -1661.03, -2026.16, -1144.86, -1573.09, -816.13, 840.76, 0.000, 0.000, 0.000, 16:37:54.857, 1560433074857
73, -925.14, -673.84, -1661.32, -2027.33, -1146.20, -1573.99, -816.15, 840.65, 0.000, 0.000, 0.000, 16:37:54.857, 1560433074857
74, -927.46, -675.34, -1663.51, -2031.57, -1147.18, -1577.65, -817.60, 840.74, 0.000, 0.000, 0.000, 16:37:54.857, 1560433074857
75, -930.21, -676.59, -1663.04, -2032.04, -1147.67, -1578.32, -816.38, 841.65, 0.000, 0.000, 0.000, 16:37:54.857, 1560433074857
76, -928.22, -674.44, -1660.51, -2029.02, -1146.31, -1575.31, -817.25, 842.79, 0.000, 0.000, 0.000, 16:37:54.858, 1560433074858
77, -926.84, -673.84, -1659.82, -2027.55, -1145.15, -1573.99, -816.98, 841.59, 0.000, 0.000, 0.000, 16:37:54.858, 1560433074858
78, -926.73, -673.57, -1661.23, -2028.44, -1147.56, -1575.37, -817.31, 840.89, 0.008, 0.046, -1.034, 16:37:54.858, 1560433074858
79, -927.40, -673.99, -1661.72, -2029.92, -1149.21, -1576.60, -819.30, 840.94, 0.000, 0.000, 0.000, 16:37:54.858, 1560433074858
80, -926.77, -674.71, -1661.76, -2030.48, -1150.04, -1576.16, -818.68, 840.05, 0.000, 0.000, 0.000, 16:37:54.858, 1560433074858
81, -927.02, -673.73, -1661.56, -2028.67, -1147.49, -1574.46, -816.24, 841.14, 0.000, 0.000, 0.000, 16:37:54.859, 1560433074859
82, -927.17, -674.22, -1661.27, -2027.50, -1147.29, -1573.16, -814.36, 840.78, 0.000, 0.000, 0.000, 16:37:54.859, 1560433074859
83, -928.20, -674.22, -1662.19, -2028.96, -1148.75, -1574.37, -815.86, 842.12, 0.000, 0.000, 0.000, 16:37:54.859, 1560433074859
84, -928.51, -674.84, -1663.17, -2031.19, -1147.40, -1576.74, -817.87, 843.67, 0.000, 0.000, 0.000, 16:37:54.859, 1560433074859
85, -926.28, -674.60, -1662.43, -2031.44, -1147.49, -1576.89, -818.39, 844.00, 0.000, 0.000, 0.000, 16:37:54.859, 1560433074859
86, -927.73, -672.72, -1660.71, -2028.91, -1146.02, -1574.37, -816.71, 841.90, 0.000, 0.000, 0.000, 16:37:54.859, 1560433074859
87, -929.05, -673.88, -1659.64, -2027.77, -1145.10, -1573.36, -815.64, 843.76, 0.000, 0.000, 0.000, 16:37:54.859, 1560433074859
88, -927.75, -673.99, -1659.73, -2027.93, -1145.77, -1573.63, -816.76, 841.57, 0.010, 0.052, -1.036, 16:37:54.859, 1560433074859
89, -927.31, -674.91, -1661.09, -2030.16, -1149.44, -1576.00, -818.79, 842.41, 0.000, 0.000, 0.000, 16:37:54.859, 1560433074859
90, -929.14, -675.56, -1662.21, -2031.10, -1149.77, -1576.78, -818.32, 843.53, 0.000, 0.000, 0.000, 16:37:54.859, 1560433074859
91, -925.41, -674.53, -1662.41, -2029.63, -1147.45, -1575.48, -816.84, 843.51, 0.000, 0.000, 0.000, 16:37:54.859, 1560433074859
92, -927.26, -674.37, -1660.56, -2028.24, -1145.21, -1574.23, -815.64, 840.36, 0.000, 0.000, 0.000, 16:37:54.859, 1560433074859
93, -930.55, -674.96, -1661.52, -2029.58, -1146.06, -1575.26, -816.71, 841.23, 0.000, 0.000, 0.000, 16:37:54.860, 1560433074860
94, -929.70, -674.80, -1661.72, -2031.26, -1148.07, -1576.78, -818.07, 842.48, 0.000, 0.000, 0.000, 16:37:54.860, 1560433074860
95, -928.94, -674.84, -1661.49, -2031.91, -1147.34, -1577.30, -817.56, 842.55, 0.000, 0.000, 0.000, 16:37:54.860, 1560433074860
96, -928.20, -674.33, -1661.49, -2029.81, -1148.21, -1575.66, -817.07, 841.19, 0.000, 0.000, 0.000, 16:37:54.860, 1560433074860
97, -927.53, -674.84, -1660.65, -2028.17, -1146.82, -1574.59, -816.69, 840.81, 0.012, 0.054, -1.030, 16:37:54.860, 1560433074860
98, -928.96, -673.30, -1660.44, -2028.15, -1146.71, -1574.32, -815.88, 841.77, 0.000, 0.000, 0.000, 16:37:54.860, 1560433074860
99, -929.88, -674.87, -1660.53, -2030.34, -1148.54, -1576.18, -817.02, 843.64, 0.000, 0.000, 0.000, 16:37:54.860, 1560433074860
100, -928.02, -674.89, -1659.80, -2030.48, -1148.10, -1575.78, -817.00, 843.29, 0.000, 0.000, 0.000, 16:37:54.860, 1560433074860
101, -928.13, -674.80, -1659.26, -2028.96, -1146.40, -1573.90, -815.44, 840.78, 0.000, 0.000, 0.000, 16:37:54.860, 1560433074860
102, -927.91, -674.58, -1658.54, -2027.48, -1145.26, -1573.52, -816.87, 840.29, 0.000, 0.000, 0.000, 16:37:54.860, 1560433074860
103, -926.95, -673.19, -1660.82, -2028.55, -1144.74, -1573.99, -817.85, 841.39, 0.000, 0.000, 0.000, 16:37:54.860, 1560433074860
104, -930.68, -673.99, -1662.95, -2030.92, -1146.56, -1576.69, -821.38, 843.35, 0.000, 0.000, 0.000, 16:37:54.860, 1560433074860
105, -931.73, -674.67, -1662.70, -2031.04, -1147.65, -1577.23, -818.48, 842.71, 0.000, 0.000, 0.000, 16:37:55.326, 1560433075326
106, -929.68, -674.11, -1659.97, -2028.15, -1148.23, -1574.37, -816.78, 841.83, 0.000, 0.000, 0.000, 16:37:55.327, 1560433075327
107, -926.06, -674.02, -1660.60, -2027.59, -1146.24, -1573.83, -816.22, 840.72, 0.014, 0.050, -1.030, 16:37:55.328, 1560433075328
108, -928.04, -674.89, -1661.43, -2029.02, -1146.35, -1574.75, -817.11, 841.03, 0.000, 0.000, 0.000, 16:37:55.328, 1560433075328
109, -927.82, -675.16, -1662.77, -2031.30, -1150.31, -1576.45, -816.78, 842.55, 0.000, 0.000, 0.000, 16:37:55.328, 1560433075328
110, -929.09, -675.18, -1661.67, -2031.68, -1149.59, -1576.92, -817.76, 843.40, 0.000, 0.000, 0.000, 16:37:55.328, 1560433075328
111, -926.44, -675.49, -1660.15, -2029.16, -1148.14, -1575.19, -816.22, 841.68, 0.000, 0.000, 0.000, 16:37:55.328, 1560433075328
112, -927.51, -674.82, -1660.82, -2027.73, -1147.78, -1574.05, -815.97, 839.46, 0.000, 0.000, 0.000, 16:37:55.329, 1560433075329
113, -928.65, -674.33, -1663.04, -2029.02, -1146.76, -1575.82, -817.87, 840.45, 0.000, 0.000, 0.000, 16:37:55.329, 1560433075329
114, -929.21, -674.55, -1663.75, -2031.35, -1150.29, -1577.12, -819.10, 842.64, 0.000, 0.000, 0.000, 16:37:55.329, 1560433075329
115, -929.88, -674.06, -1663.33, -2031.62, -1151.27, -1577.36, -817.07, 840.72, 0.000, 0.000, 0.000, 16:37:55.329, 1560433075329
116, -926.86, -674.04, -1661.34, -2029.52, -1147.92, -1575.19, -815.50, 838.82, 0.000, 0.000, 0.000, 16:37:55.329, 1560433075329
117, -925.52, -673.93, -1659.59, -2027.46, -1147.18, -1573.03, -815.59, 840.05, 0.012, 0.052, -1.038, 16:37:55.329, 1560433075329
118, -927.87, -674.93, -1661.16, -2028.35, -1146.29, -1574.61, -817.49, 843.98, 0.000, 0.000, 0.000, 16:37:55.330, 1560433075330
119, -927.53, -675.74, -1663.08, -2031.48, -1146.98, -1577.00, -817.16, 846.33, 0.000, 0.000, 0.000, 16:37:55.330, 1560433075330
120, -927.44, -675.42, -1663.35, -2031.91, -1147.49, -1577.70, -816.91, 843.47, 0.000, 0.000, 0.000, 16:37:55.330, 1560433075330
121, -928.20, -675.04, -1661.54, -2029.58, -1145.77, -1575.84, -818.21, 842.06, 0.000, 0.000, 0.000, 16:37:55.330, 1560433075330
122, -926.19, -673.99, -1660.42, -2027.77, -1146.96, -1574.48, -814.86, 842.97, 0.000, 0.000, 0.000, 16:37:55.331, 1560433075331
123, -928.47, -675.20, -1661.96, -2030.16, -1148.57, -1575.84, -815.70, 843.40, 0.000, 0.000, 0.000, 16:37:55.331, 1560433075331
124, -927.73, -675.85, -1662.39, -2031.37, -1147.38, -1576.71, -817.94, 844.09, 0.000, 0.000, 0.000, 16:37:55.331, 1560433075331
125, -927.51, -674.24, -1662.39, -2031.62, -1148.57, -1576.94, -819.06, 842.66, 0.000, 0.000, 0.000, 16:37:55.331, 1560433075331
126, -928.58, -673.32, -1660.44, -2029.54, -1148.70, -1575.46, -815.37, 840.43, 0.000, 0.000, 0.000, 16:37:55.331, 1560433075331
127, -929.12, -674.29, -1661.09, -2029.65, -1146.06, -1575.91, -815.88, 840.27, 0.010, 0.056, -1.042, 16:37:55.332, 1560433075332
128, -928.33, -674.71, -1661.72, -2030.68, -1147.05, -1576.29, -819.71, 840.67, 0.000, 0.000, 0.000, 16:37:55.332, 1560433075332
129, -927.42, -675.36, -1662.97, -2032.31, -1148.75, -1577.30, -819.62, 843.35, 0.000, 0.000, 0.000, 16:37:55.332, 1560433075332
130, -928.76, -674.69, -1662.95, -2032.87, -1149.68, -1577.59, -818.97, 842.95, 0.000, 0.000, 0.000, 16:37:55.332, 1560433075332
131, -929.41, -675.18, -1662.12, -2031.46, -1148.45, -1575.95, -819.10, 840.40, 0.000, 0.000, 0.000, 16:37:55.333, 1560433075333
132, -927.62, -675.69, -1661.94, -2029.67, -1147.36, -1575.22, -817.22, 841.63, 0.000, 0.000, 0.000, 16:37:55.340, 1560433075340
133, -928.65, -675.38, -1660.78, -2028.29, -1148.10, -1574.77, -817.49, 842.30, 0.000, 0.000, 0.000, 16:37:55.340, 1560433075340
134, -929.25, -674.33, -1662.03, -2030.14, -1150.15, -1576.38, -819.88, 843.02, 0.000, 0.000, 0.000, 16:37:55.340, 1560433075340
135, -931.24, -676.27, -1663.86, -2032.24, -1150.24, -1577.90, -821.07, 840.94, 0.000, 0.000, 0.000, 16:37:55.340, 1560433075340
136, -929.79, -675.45, -1662.17, -2029.90, -1149.04, -1574.88, -819.73, 841.74, 0.000, 0.000, 0.000, 16:37:55.340, 1560433075340
137, -928.54, -675.00, -1661.09, -2027.84, -1147.34, -1573.36, -818.10, 842.91, 0.008, 0.058, -1.036, 16:37:55.341, 1560433075341
138, -929.07, -675.51, -1662.50, -2029.74, -1148.57, -1575.35, -818.19, 842.84, 0.000, 0.000, 0.000, 16:37:55.341, 1560433075341
139, -929.97, -674.73, -1662.90, -2031.59, -1149.46, -1576.74, -818.57, 841.10, 0.000, 0.000, 0.000, 16:37:55.341, 1560433075341
140, -928.04, -674.96, -1663.55, -2033.52, -1150.31, -1577.88, -818.07, 842.46, 0.000, 0.000, 0.000, 16:37:55.341, 1560433075341
141, -928.45, -675.36, -1661.11, -2030.86, -1147.54, -1576.27, -817.18, 842.57, 0.000, 0.000, 0.000, 16:37:55.341, 1560433075341
142, -929.94, -675.56, -1661.90, -2029.20, -1147.65, -1575.15, -816.53, 842.33, 0.000, 0.000, 0.000, 16:37:55.341, 1560433075341
143, -931.60, -675.80, -1663.06, -2030.79, -1149.35, -1576.02, -817.94, 843.80, 0.000, 0.000, 0.000, 16:37:55.342, 1560433075342
144, -929.74, -675.20, -1663.73, -2032.82, -1149.95, -1577.92, -818.90, 845.23, 0.000, 0.000, 0.000, 16:37:55.342, 1560433075342
145, -927.62, -675.76, -1665.00, -2033.76, -1148.79, -1578.90, -818.77, 846.24, 0.000, 0.000, 0.000, 16:37:55.342, 1560433075342
146, -929.41, -676.10, -1663.35, -2031.24, -1147.78, -1577.30, -817.90, 842.57, 0.000, 0.000, 0.000, 16:37:55.342, 1560433075342
147, -930.48, -675.45, -1662.30, -2029.14, -1148.05, -1575.91, -819.39, 842.41, 0.008, 0.058, -1.032, 16:37:55.342, 1560433075342
148, -929.85, -674.44, -1661.99, -2029.47, -1147.36, -1575.33, -819.01, 842.91, 0.000, 0.000, 0.000, 16:37:55.342, 1560433075342
149, -929.88, -674.93, -1662.32, -2031.95, -1149.35, -1577.52, -818.48, 843.87, 0.000, 0.000, 0.000, 16:37:55.343, 1560433075343
150, -929.09, -674.73, -1662.79, -2031.93, -1151.16, -1578.17, -816.80, 842.03, 0.000, 0.000, 0.000, 16:37:55.343, 1560433075343
151, -927.69, -674.73, -1661.61, -2030.14, -1148.10, -1576.27, -816.84, 840.16, 0.000, 0.000, 0.000, 16:37:55.343, 1560433075343
152, -930.01, -675.13, -1661.58, -2029.61, -1147.23, -1576.00, -815.26, 840.83, 0.000, 0.000, 0.000, 16:37:55.343, 1560433075343
153, -931.33, -675.11, -1661.27, -2030.54, -1147.29, -1576.47, -817.34, 842.75, 0.000, 0.000, 0.000, 16:37:55.343, 1560433075343
154, -929.77, -675.85, -1664.00, -2034.05, -1148.41, -1579.24, -818.68, 844.29, 0.000, 0.000, 0.000, 16:37:55.343, 1560433075343
155, -931.11, -676.32, -1663.46, -2033.49, -1149.28, -1579.15, -820.51, 844.54, 0.000, 0.000, 0.000, 16:37:55.344, 1560433075344
156, -931.04, -677.06, -1660.94, -2030.81, -1150.69, -1577.27, -819.71, 841.83, 0.000, 0.000, 0.000, 16:37:55.344, 1560433075344
157, -928.20, -676.36, -1661.07, -2030.19, -1147.69, -1575.91, -817.09, 842.39, 0.008, 0.060, -1.036, 16:37:55.344, 1560433075344
158, -929.14, -675.74, -1661.14, -2031.08, -1146.33, -1576.56, -816.67, 843.55, 0.000, 0.000, 0.000, 16:37:55.344, 1560433075344
159, -929.85, -675.94, -1662.12, -2032.91, -1148.79, -1578.12, -817.74, 842.57, 0.000, 0.000, 0.000, 16:37:55.344, 1560433075344
160, -930.26, -674.93, -1662.21, -2032.56, -1149.01, -1577.16, -818.79, 841.39, 0.000, 0.000, 0.000, 16:37:55.344, 1560433075344
161, -927.24, -676.81, -1662.43, -2031.46, -1146.94, -1576.51, -819.39, 839.51, 0.000, 0.000, 0.000, 16:37:55.345, 1560433075345
162, -927.06, -677.01, -1663.01, -2031.01, -1147.67, -1577.52, -818.45, 840.58, 0.000, 0.000, 0.000, 16:37:55.345, 1560433075345
163, -927.84, -676.12, -1662.05, -2030.59, -1149.15, -1577.68, -818.39, 844.38, 0.000, 0.000, 0.000, 16:37:55.345, 1560433075345
164, -928.67, -676.94, -1663.13, -2032.85, -1150.87, -1579.35, -817.29, 844.27, 0.000, 0.000, 0.000, 16:37:55.345, 1560433075345
165, -929.21, -676.61, -1662.23, -2032.67, -1150.91, -1578.12, -818.30, 842.35, 0.000, 0.000, 0.000, 16:37:55.345, 1560433075345
166, -929.18, -675.72, -1661.09, -2031.19, -1149.30, -1576.07, -815.77, 842.75, 0.000, 0.000, 0.000, 16:37:55.345, 1560433075345
167, -927.71, -675.02, -1661.09, -2029.81, -1147.85, -1574.95, -816.44, 841.68, 0.008, 0.054, -1.032, 16:37:55.346, 1560433075346
168, -928.74, -675.72, -1661.99, -2030.83, -1149.73, -1576.11, -818.10, 841.86, 0.000, 0.000, 0.000, 16:37:55.346, 1560433075346
169, -929.77, -676.56, -1663.46, -2032.91, -1151.36, -1578.35, -819.08, 843.51, 0.000, 0.000, 0.000, 16:37:55.346, 1560433075346
170, -930.28, -676.01, -1662.57, -2033.20, -1150.13, -1579.04, -819.01, 843.53, 0.000, 0.000, 0.000, 16:37:55.347, 1560433075347
171, -929.79, -674.20, -1659.77, -2030.48, -1148.81, -1575.33, -818.57, 844.47, 0.000, 0.000, 0.000, 16:37:55.347, 1560433075347
172, -930.15, -674.37, -1659.66, -2028.85, -1145.37, -1574.03, -818.61, 843.80, 0.000, 0.000, 0.000, 16:37:55.348, 1560433075348
173, -929.52, -674.11, -1660.29, -2029.87, -1147.52, -1574.86, -818.10, 843.20, 0.000, 0.000, 0.000, 16:37:55.348, 1560433075348
174, -927.93, -675.31, -1661.94, -2032.56, -1149.35, -1577.52, -818.19, 843.87, 0.000, 0.000, 0.000, 16:37:55.348, 1560433075348
175, -928.58, -677.62, -1664.15, -2034.01, -1149.59, -1579.58, -818.21, 842.75, 0.000, 0.000, 0.000, 16:37:55.349, 1560433075349
176, -928.07, -676.41, -1663.62, -2032.42, -1150.15, -1578.01, -818.77, 844.40, 0.000, 0.000, 0.000, 16:37:55.349, 1560433075349
177, -927.55, -676.23, -1662.50, -2030.63, -1149.46, -1576.85, -817.56, 843.35, 0.006, 0.052, -1.026, 16:37:55.349, 1560433075349
178, -930.75, -676.12, -1661.96, -2030.03, -1148.75, -1576.22, -818.77, 843.58, 0.000, 0.000, 0.000, 16:37:55.349, 1560433075349
179, -930.55, -677.19, -1664.89, -2033.34, -1149.86, -1579.20, -820.67, 844.16, 0.000, 0.000, 0.000, 16:37:55.350, 1560433075350
180, -929.81, -677.24, -1665.63, -2034.14, -1151.54, -1579.73, -819.06, 843.40, 0.000, 0.000, 0.000, 16:37:55.350, 1560433075350
181, -927.89, -675.00, -1662.72, -2030.72, -1151.34, -1576.71, -817.05, 842.41, 0.000, 0.000, 0.000, 16:37:55.350, 1560433075350
182, -929.45, -674.33, -1661.23, -2028.89, -1149.93, -1575.06, -817.20, 842.64, 0.000, 0.000, 0.000, 16:37:55.350, 1560433075350
183, -930.86, -675.89, -1661.96, -2030.34, -1150.71, -1576.13, -818.23, 843.13, 0.000, 0.000, 0.000, 16:37:55.351, 1560433075351
184, -930.48, -677.08, -1663.33, -2033.18, -1149.82, -1577.72, -817.45, 843.80, 0.000, 0.000, 0.000, 16:37:55.351, 1560433075351
185, -928.76, -678.67, -1663.66, -2034.43, -1149.62, -1578.75, -819.59, 842.35, 0.000, 0.000, 0.000, 16:37:55.351, 1560433075351
186, -927.84, -677.35, -1661.83, -2032.24, -1150.73, -1577.03, -818.74, 841.12, 0.000, 0.000, 0.000, 16:37:55.351, 1560433075351
187, -928.18, -676.61, -1661.32, -2030.52, -1149.04, -1575.71, -816.69, 840.96, 0.008, 0.048, -1.030, 16:37:55.351, 1560433075351
188, -928.63, -676.23, -1662.57, -2030.75, -1148.97, -1576.22, -816.49, 841.61, 0.000, 0.000, 0.000, 16:37:55.351, 1560433075351
189, -928.83, -675.69, -1662.37, -2032.60, -1147.58, -1577.97, -818.92, 841.45, 0.000, 0.000, 0.000, 16:37:55.352, 1560433075352
190, -930.41, -676.54, -1662.46, -2033.65, -1149.21, -1578.19, -819.79, 842.21, 0.000, 0.000, 0.000, 16:37:55.352, 1560433075352
191, -929.77, -675.78, -1661.47, -2031.77, -1148.37, -1576.29, -819.17, 843.35, 0.000, 0.000, 0.000, 16:37:55.352, 1560433075352
192, -928.56, -675.47, -1660.91, -2030.39, -1146.91, -1574.88, -819.53, 843.71, 0.000, 0.000, 0.000, 16:37:55.352, 1560433075352
193, -929.16, -677.01, -1662.05, -2031.01, -1149.04, -1575.73, -819.88, 842.26, 0.000, 0.000, 0.000, 16:37:55.353, 1560433075353
194, -929.43, -677.39, -1664.53, -2033.56, -1151.70, -1577.72, -819.91, 842.28, 0.000, 0.000, 0.000, 16:37:55.353, 1560433075353
195, -929.77, -676.27, -1664.62, -2034.17, -1151.27, -1577.97, -819.97, 843.71, 0.000, 0.000, 0.000, 16:37:55.353, 1560433075353
196, -930.66, -675.74, -1663.19, -2032.80, -1149.53, -1576.71, -818.39, 843.53, 0.000, 0.000, 0.000, 16:37:55.354, 1560433075354
197, -929.25, -675.34, -1660.80, -2030.59, -1150.09, -1575.08, -817.07, 842.64, 0.002, 0.052, -1.036, 16:37:55.354, 1560433075354
198, -929.03, -676.39, -1661.85, -2032.82, -1150.27, -1577.34, -818.23, 842.08, 0.000, 0.000, 0.000, 16:37:55.354, 1560433075354
199, -931.60, -677.46, -1663.82, -2035.44, -1148.03, -1579.91, -819.88, 843.38, 0.000, 0.000, 0.000, 16:37:55.354, 1560433075354
200, -930.10, -677.24, -1663.24, -2035.24, -1149.26, -1579.49, -819.57, 843.33, 0.000, 0.000, 0.000, 16:37:55.354, 1560433075354
201, -929.07, -676.10, -1661.34, -2032.87, -1147.69, -1578.26, -818.97, 842.64, 0.000, 0.000, 0.000, 16:37:55.354, 1560433075354
202, -930.86, -676.79, -1662.50, -2031.82, -1146.91, -1577.30, -819.26, 842.62, 0.000, 0.000, 0.000, 16:37:55.356, 1560433075356
203, -930.88, -676.39, -1662.77, -2032.11, -1146.91, -1577.12, -818.77, 843.40, 0.000, 0.000, 0.000, 16:37:55.357, 1560433075357
204, -931.67, -675.45, -1662.84, -2033.87, -1149.77, -1578.57, -818.95, 845.30, 0.000, 0.000, 0.000, 16:37:55.358, 1560433075358
205, -930.77, -677.32, -1662.90, -2034.99, -1150.27, -1579.15, -819.01, 845.90, 0.000, 0.000, 0.000, 16:37:55.358, 1560433075358
206, -930.23, -678.69, -1662.57, -2033.11, -1148.92, -1577.12, -818.45, 845.45, 0.000, 0.000, 0.000, 16:37:55.358, 1560433075358
207, -928.87, -677.32, -1661.63, -2030.95, -1148.41, -1574.88, -817.09, 843.47, 0.004, 0.050, -1.030, 16:37:55.359, 1560433075359
208, -928.13, -676.68, -1663.35, -2031.86, -1150.13, -1575.93, -817.85, 842.57, 0.000, 0.000, 0.000, 16:37:55.359, 1560433075359
209, -930.82, -677.75, -1664.27, -2034.03, -1152.19, -1577.79, -819.71, 845.45, 0.000, 0.000, 0.000, 16:37:55.359, 1560433075359
210, -933.61, -678.17, -1662.68, -2033.47, -1150.49, -1577.03, -820.96, 846.33, 0.000, 0.000, 0.000, 16:37:55.360, 1560433075360
211, -930.06, -677.88, -1661.45, -2032.22, -1148.77, -1575.80, -819.97, 844.09, 0.000, 0.000, 0.000, 16:37:55.361, 1560433075361
212, -929.56, -677.01, -1661.32, -2031.84, -1146.51, -1576.04, -819.19, 842.59, 0.000, 0.000, 0.000, 16:37:55.362, 1560433075362
213, -931.73, -677.01, -1661.99, -2032.76, -1150.82, -1577.00, -818.61, 844.94, 0.000, 0.000, 0.000, 16:37:55.362, 1560433075362
214, -930.26, -677.79, -1663.84, -2035.22, -1151.16, -1579.51, -820.40, 844.31, 0.000, 0.000, 0.000, 16:37:55.363, 1560433075363
215, -932.45, -677.01, -1662.95, -2034.84, -1149.57, -1579.02, -819.75, 844.20, 0.000, 0.000, 0.000, 16:37:55.363, 1560433075363
216, -930.79, -678.62, -1661.99, -2033.25, -1150.20, -1577.45, -820.51, 843.73, 0.008, 0.056, -1.040, 16:37:55.364, 1560433075364
217, -930.30, -678.42, -1662.75, -2032.29, -1150.35, -1576.63, -820.55, 841.52, 0.000, 0.000, 0.000, 16:37:55.364, 1560433075364
218, -930.37, -678.64, -1663.91, -2033.76, -1152.08, -1578.86, -818.65, 843.06, 0.000, 0.000, 0.000, 16:37:55.364, 1560433075364
219, -929.72, -678.15, -1664.00, -2035.55, -1151.92, -1580.25, -819.91, 844.14, 0.000, 0.000, 0.000, 16:37:55.364, 1560433075364
220, -929.09, -679.54, -1664.36, -2036.09, -1150.24, -1579.98, -818.88, 845.30, 0.000, 0.000, 0.000, 16:37:55.364, 1560433075364
221, -928.80, -679.09, -1662.93, -2033.70, -1150.56, -1577.97, -818.59, 845.59, 0.000, 0.000, 0.000, 16:37:55.364, 1560433075364
222, -929.74, -677.32, -1660.44, -2031.59, -1150.22, -1575.66, -820.26, 845.01, 0.000, 0.000, 0.000, 16:37:55.364, 1560433075364
223, -931.64, -677.68, -1661.79, -2032.47, -1148.59, -1576.58, -819.57, 842.30, 0.000, 0.000, 0.000, 16:37:55.364, 1560433075364
224, -933.16, -678.62, -1663.13, -2034.70, -1149.28, -1579.24, -820.58, 843.91, 0.000, 0.000, 0.000, 16:37:55.364, 1560433075364
225, -931.04, -679.43, -1663.75, -2035.06, -1149.33, -1579.58, -819.62, 845.16, 0.000, 0.000, 0.000, 16:37:55.365, 1560433075365
226, -929.07, -678.24, -1662.77, -2033.36, -1148.63, -1577.83, -819.46, 842.79, 0.008, 0.056, -1.030, 16:37:55.812, 1560433075812
227, -931.42, -677.97, -1661.81, -2031.59, -1149.28, -1576.38, -819.44, 842.08, 0.000, 0.000, 0.000, 16:37:55.813, 1560433075813
228, -930.48, -677.84, -1662.21, -2033.11, -1150.91, -1577.12, -820.09, 844.36, 0.000, 0.000, 0.000, 16:37:55.813, 1560433075813
229, -929.81, -678.17, -1663.10, -2035.48, -1149.77, -1578.46, -820.85, 844.09, 0.000, 0.000, 0.000, 16:37:55.814, 1560433075814
230, -930.77, -678.06, -1662.48, -2034.84, -1152.28, -1577.83, -821.45, 845.07, 0.000, 0.000, 0.000, 16:37:55.814, 1560433075814
231, -932.05, -678.46, -1663.13, -2034.23, -1148.86, -1577.25, -819.66, 844.81, 0.000, 0.000, 0.000, 16:37:55.814, 1560433075814
232, -929.88, -678.67, -1663.73, -2033.58, -1146.15, -1577.36, -818.72, 844.23, 0.000, 0.000, 0.000, 16:37:55.815, 1560433075815
233, -929.36, -678.89, -1662.84, -2033.65, -1148.37, -1576.80, -821.07, 843.53, 0.000, 0.000, 0.000, 16:37:55.815, 1560433075815
234, -929.92, -678.46, -1662.86, -2035.44, -1149.82, -1578.21, -821.09, 844.83, 0.000, 0.000, 0.000, 16:37:55.816, 1560433075816
235, -931.37, -678.04, -1663.39, -2036.31, -1151.92, -1579.28, -821.96, 844.63, 0.000, 0.000, 0.000, 16:37:55.816, 1560433075816
236, -931.82, -679.07, -1661.61, -2034.43, -1150.35, -1578.35, -820.31, 844.54, 0.004, 0.058, -1.032, 16:37:55.816, 1560433075816
237, -930.06, -678.26, -1660.67, -2031.71, -1147.94, -1576.40, -819.33, 842.86, 0.000, 0.000, 0.000, 16:37:55.816, 1560433075816
238, -930.88, -677.66, -1662.34, -2033.87, -1149.15, -1579.02, -819.15, 843.47, 0.000, 0.000, 0.000, 16:37:55.817, 1560433075817
239, -931.11, -678.80, -1664.29, -2036.27, -1153.33, -1580.29, -819.21, 844.23, 0.000, 0.000, 0.000, 16:37:55.817, 1560433075817
240, -932.51, -677.95, -1663.62, -2036.62, -1152.17, -1580.20, -818.95, 843.80, 0.000, 0.000, 0.000, 16:37:55.817, 1560433075817
241, -930.53, -676.81, -1661.32, -2034.43, -1151.74, -1578.03, -820.40, 843.69, 0.000, 0.000, 0.000, 16:37:55.817, 1560433075817
242, -931.44, -677.57, -1661.16, -2033.09, -1149.75, -1577.68, -820.17, 844.87, 0.000, 0.000, 0.000, 16:37:55.818, 1560433075818
243, -932.20, -677.35, -1662.46, -2033.72, -1150.51, -1578.37, -819.84, 845.54, 0.000, 0.000, 0.000, 16:37:55.819, 1560433075819
244, -930.21, -676.30, -1662.59, -2034.68, -1149.89, -1578.61, -819.48, 845.14, 0.000, 0.000, 0.000, 16:37:55.819, 1560433075819
245, -932.05, -678.58, -1663.68, -2036.27, -1150.15, -1579.42, -820.44, 845.70, 0.000, 0.000, 0.000, 16:37:55.819, 1560433075819
246, -930.26, -679.85, -1663.39, -2034.81, -1149.95, -1578.19, -818.43, 843.47, 0.004, 0.058, -1.030, 16:37:55.819, 1560433075819
247, -929.83, -679.72, -1662.05, -2033.25, -1148.52, -1576.80, -818.41, 844.58, 0.000, 0.000, 0.000, 16:37:55.820, 1560433075820
248, -931.75, -679.69, -1663.01, -2034.03, -1149.01, -1578.75, -817.43, 843.29, 0.000, 0.000, 0.000, 16:37:55.820, 1560433075820
249, -930.15, -678.35, -1662.95, -2034.61, -1152.25, -1578.59, -820.96, 841.10, 0.000, 0.000, 0.000, 16:37:55.821, 1560433075821
250, -931.82, -679.11, -1662.90, -2035.33, -1150.69, -1579.08, -821.40, 842.28, 0.000, 0.000, 0.000, 16:37:55.821, 1560433075821
251, -931.67, -677.79, -1661.45, -2033.25, -1148.83, -1577.12, -820.40, 844.78, 0.000, 0.000, 0.000, 16:37:55.822, 1560433075822
252, -929.14, -677.35, -1662.63, -2032.67, -1148.86, -1576.71, -819.71, 843.53, 0.000, 0.000, 0.000, 16:37:55.822, 1560433075822
253, -930.75, -677.62, -1663.17, -2034.12, -1152.66, -1577.83, -820.00, 842.62, 0.000, 0.000, 0.000, 16:37:55.822, 1560433075822
254, -929.25, -677.53, -1664.31, -2036.49, -1154.29, -1579.69, -821.09, 845.14, 0.000, 0.000, 0.000, 16:37:55.822, 1560433075822
255, -931.20, -678.84, -1665.18, -2036.74, -1152.43, -1580.31, -821.36, 846.89, 0.000, 0.000, 0.000, 16:37:55.823, 1560433075823
0, -931.55, -679.78, -1664.11, -2033.81, -1150.60, -1578.35, -818.72, 845.79, 0.002, 0.054, -1.024, 16:37:55.823, 1560433075823
1, -929.63, -678.35, -1662.70, -2032.35, -1150.35, -1577.14, -819.24, 844.63, 0.000, 0.000, 0.000, 16:37:55.823, 1560433075823
2, -931.58, -677.84, -1662.32, -2032.87, -1150.35, -1577.16, -819.59, 844.58, 0.000, 0.000, 0.000, 16:37:55.823, 1560433075823
3, -931.91, -678.87, -1664.06, -2035.93, -1153.60, -1579.42, -819.21, 844.20, 0.000, 0.000, 0.000, 16:37:55.823, 1560433075823
4, -930.32, -679.40, -1663.80, -2036.65, -1151.70, -1580.65, -820.44, 844.54, 0.000, 0.000, 0.000, 16:37:55.823, 1560433075823
5, -931.44, -678.78, -1662.55, -2035.19, -1150.76, -1578.86, -821.18, 843.87, 0.000, 0.000, 0.000, 16:37:55.824, 1560433075824
6, -930.82, -677.93, -1661.38, -2033.41, -1149.57, -1577.00, -819.35, 845.39, 0.000, 0.000, 0.000, 16:37:55.824, 1560433075824
7, -930.59, -678.51, -1662.10, -2034.30, -1151.65, -1578.19, -820.35, 843.09, 0.000, 0.000, 0.000, 16:37:55.824, 1560433075824
8, -931.22, -679.65, -1663.68, -2037.18, -1150.56, -1580.67, -821.34, 844.43, 0.000, 0.000, 0.000, 16:37:55.824, 1560433075824
9, -931.08, -680.21, -1663.44, -2037.14, -1152.43, -1581.05, -820.71, 845.39, 0.000, 0.000, 0.000, 16:37:55.825, 1560433075825
10, -930.44, -679.47, -1661.54, -2034.48, -1152.25, -1578.79, -820.40, 844.83, 0.006, 0.052, -1.028, 16:37:55.825, 1560433075825
11, -930.70, -678.49, -1661.79, -2033.32, -1148.72, -1577.59, -819.77, 845.32, 0.000, 0.000, 0.000, 16:37:55.825, 1560433075825
12, -930.91, -679.05, -1662.99, -2034.05, -1151.20, -1578.01, -821.18, 844.05, 0.000, 0.000, 0.000, 16:37:55.825, 1560433075825
13, -933.43, -678.98, -1664.36, -2036.07, -1151.20, -1580.04, -822.01, 845.66, 0.000, 0.000, 0.000, 16:37:55.825, 1560433075825
14, -932.94, -678.53, -1663.53, -2036.18, -1151.27, -1579.87, -821.40, 843.53, 0.000, 0.000, 0.000, 16:37:55.826, 1560433075826
15, -930.82, -677.26, -1662.46, -2034.10, -1151.70, -1578.41, -818.68, 842.57, 0.000, 0.000, 0.000, 16:37:55.826, 1560433075826
16, -930.03, -677.44, -1662.32, -2032.85, -1150.60, -1577.54, -817.31, 843.49, 0.000, 0.000, 0.000, 16:37:55.826, 1560433075826
17, -929.03, -677.55, -1664.04, -2034.10, -1152.55, -1578.79, -818.68, 844.40, 0.000, 0.000, 0.000, 16:37:55.827, 1560433075827
18, -930.30, -678.06, -1664.89, -2036.40, -1154.20, -1580.80, -819.77, 844.54, 0.000, 0.000, 0.000, 16:37:55.827, 1560433075827
19, -933.03, -677.30, -1662.97, -2035.46, -1152.48, -1579.35, -820.53, 845.21, 0.000, 0.000, 0.000, 16:37:55.827, 1560433075827
20, -929.12, -678.46, -1664.04, -2035.60, -1151.94, -1579.80, -821.47, 843.78, 0.000, 0.052, -1.032, 16:37:55.827, 1560433075827
21, -931.62, -679.52, -1663.37, -2034.08, -1150.76, -1577.99, -819.24, 844.81, 0.000, 0.000, 0.000, 16:37:55.828, 1560433075828
22, -933.03, -678.40, -1663.01, -2033.38, -1148.63, -1576.67, -820.47, 843.17, 0.000, 0.000, 0.000, 16:37:55.828, 1560433075828
23, -932.22, -679.40, -1664.40, -2036.22, -1149.68, -1579.37, -823.04, 846.28, 0.000, 0.000, 0.000, 16:37:55.828, 1560433075828
24, -931.49, -679.98, -1664.65, -2037.07, -1151.65, -1580.56, -820.51, 845.45, 0.000, 0.000, 0.000, 16:37:55.828, 1560433075828
25, -930.48, -678.76, -1662.01, -2034.81, -1152.05, -1577.61, -821.58, 845.63, 0.000, 0.000, 0.000, 16:37:55.829, 1560433075829
26, -928.89, -678.29, -1661.11, -2033.29, -1150.91, -1576.02, -818.77, 845.19, 0.000, 0.000, 0.000, 16:37:55.829, 1560433075829
27, -929.83, -678.91, -1663.10, -2034.34, -1151.05, -1577.68, -818.39, 844.14, 0.000, 0.000, 0.000, 16:37:55.829, 1560433075829
28, -930.06, -679.09, -1665.07, -2036.82, -1152.68, -1580.07, -821.09, 842.84, 0.000, 0.000, 0.000, 16:37:55.830, 1560433075830
29, -931.51, -679.25, -1665.56, -2037.72, -1152.48, -1581.03, -820.91, 844.14, 0.000, 0.000, 0.000, 16:37:55.830, 1560433075830
30, -933.07, -679.58, -1663.46, -2036.27, -1152.55, -1579.42, -819.73, 844.11, 0.004, 0.058, -1.038, 16:37:55.830, 1560433075830
31, -931.89, -679.34, -1663.35, -2034.79, -1149.82, -1578.01, -817.65, 841.34, 0.000, 0.000, 0.000, 16:37:55.830, 1560433075830
32, -932.18, -678.80, -1663.06, -2034.61, -1149.64, -1577.56, -818.27, 843.69, 0.000, 0.000, 0.000, 16:37:55.830, 1560433075830
33, -933.88, -679.78, -1664.09, -2036.60, -1150.98, -1579.24, -820.00, 846.71, 0.000, 0.000, 0.000, 16:37:55.830, 1560433075830
34, -935.35, -677.93, -1663.55, -2036.53, -1152.08, -1579.66, -818.72, 843.17, 0.000, 0.000, 0.000, 16:37:55.830, 1560433075830
35, -931.13, -678.40, -1663.57, -2035.95, -1150.29, -1579.73, -818.99, 843.62, 0.000, 0.000, 0.000, 16:37:55.830, 1560433075830
36, -932.69, -677.50, -1662.46, -2034.37, -1147.92, -1578.44, -820.35, 843.40, 0.000, 0.000, 0.000, 16:37:55.831, 1560433075831
37, -932.11, -678.08, -1662.79, -2033.76, -1150.27, -1577.74, -820.80, 843.96, 0.000, 0.000, 0.000, 16:37:55.831, 1560433075831
38, -931.55, -679.47, -1665.56, -2036.60, -1151.52, -1580.63, -821.78, 845.99, 0.000, 0.000, 0.000, 16:37:55.831, 1560433075831
39, -932.56, -679.56, -1666.08, -2038.39, -1152.05, -1581.30, -820.58, 847.82, 0.000, 0.000, 0.000, 16:37:55.832, 1560433075832
40, -933.63, -678.89, -1665.03, -2037.41, -1151.58, -1580.49, -820.78, 845.07, -0.002, 0.054, -1.030, 16:37:55.832, 1560433075832
41, -932.58, -678.76, -1664.47, -2035.46, -1150.94, -1579.60, -820.35, 844.31, 0.000, 0.000, 0.000, 16:37:55.832, 1560433075832
42, -931.26, -680.30, -1662.93, -2034.72, -1153.04, -1578.64, -818.99, 845.03, 0.000, 0.000, 0.000, 16:37:55.833, 1560433075833
43, -930.01, -678.71, -1663.73, -2036.69, -1152.28, -1579.53, -819.46, 845.01, 0.000, 0.000, 0.000, 16:37:55.833, 1560433075833
44, -931.26, -678.35, -1664.11, -2038.39, -1151.94, -1580.83, -821.34, 844.96, 0.000, 0.000, 0.000, 16:37:55.833, 1560433075833
45, -931.89, -679.25, -1663.71, -2036.87, -1152.48, -1579.84, -821.54, 845.52, 0.000, 0.000, 0.000, 16:37:55.833, 1560433075833
46, -931.31, -679.85, -1663.86, -2034.93, -1151.34, -1578.30, -819.79, 843.85, 0.000, 0.000, 0.000, 16:37:55.833, 1560433075833
47, -930.03, -679.49, -1663.93, -2035.53, -1151.54, -1578.03, -819.26, 842.12, 0.000, 0.000, 0.000, 16:37:55.834, 1560433075834
48, -932.65, -679.34, -1664.91, -2037.94, -1153.26, -1580.54, -820.85, 842.33, 0.000, 0.000, 0.000, 16:37:55.834, 1560433075834
49, -932.60, -678.89, -1665.67, -2038.17, -1152.93, -1581.59, -821.16, 845.03, 0.000, 0.000, 0.000, 16:37:55.834, 1560433075834
50, -931.08, -679.60, -1663.84, -2036.60, -1151.96, -1579.44, -820.69, 844.74, 0.002, 0.058, -1.032, 16:37:55.834, 1560433075834
51, -930.88, -679.07, -1662.61, -2033.54, -1149.57, -1576.74, -819.15, 845.97, 0.000, 0.000, 0.000, 16:37:55.834, 1560433075834
52, -930.88, -679.38, -1663.53, -2034.41, -1150.38, -1578.06, -818.45, 844.36, 0.000, 0.000, 0.000, 16:37:55.835, 1560433075835
53, -930.55, -680.12, -1664.33, -2038.01, -1152.70, -1580.65, -819.39, 844.67, 0.000, 0.000, 0.000, 16:37:55.835, 1560433075835
54, -930.61, -680.21, -1664.82, -2038.64, -1154.38, -1580.98, -821.76, 845.50, 0.000, 0.000, 0.000, 16:37:55.835, 1560433075835
55, -929.21, -677.95, -1663.44, -2035.82, -1150.76, -1578.35, -818.77, 844.18, 0.000, 0.000, 0.000, 16:37:55.835, 1560433075835
56, -930.30, -679.02, -1662.32, -2033.65, -1151.32, -1576.45, -818.99, 843.93, 0.000, 0.000, 0.000, 16:37:55.836, 1560433075836
57, -930.32, -680.30, -1663.42, -2034.77, -1152.57, -1578.01, -820.85, 843.51, 0.000, 0.000, 0.000, 16:37:55.836, 1560433075836
58, -932.20, -680.25, -1665.58, -2037.54, -1151.65, -1580.45, -820.93, 843.33, 0.000, 0.000, 0.000, 16:37:55.836, 1560433075836
59, -934.01, -679.60, -1665.76, -2038.52, -1150.91, -1580.34, -820.44, 844.65, 0.000, 0.000, 0.000, 16:37:55.836, 1560433075836
60, -933.14, -679.78, -1664.91, -2037.27, -1152.66, -1578.90, -820.73, 845.07, 0.010, 0.058, -1.032, 16:37:55.837, 1560433075837
61, -932.83, -679.54, -1663.95, -2034.77, -1151.38, -1577.36, -821.99, 843.60, 0.000, 0.000, 0.000, 16:37:55.838, 1560433075838
62, -932.09, -679.45, -1663.57, -2034.37, -1149.62, -1577.63, -822.66, 843.55, 0.000, 0.000, 0.000, 16:37:55.838, 1560433075838
63, -931.73, -680.41, -1664.31, -2036.62, -1151.23, -1579.35, -821.85, 845.68, 0.000, 0.000, 0.000, 16:37:55.838, 1560433075838
64, -932.92, -680.81, -1665.61, -2038.34, -1151.87, -1580.36, -820.53, 844.96, 0.000, 0.000, 0.000, 16:37:55.838, 1560433075838
65, -932.87, -681.37, -1663.44, -2036.00, -1151.54, -1578.52, -820.42, 845.66, 0.000, 0.000, 0.000, 16:37:55.838, 1560433075838
66, -930.19, -681.57, -1661.27, -2032.98, -1151.03, -1575.71, -819.24, 846.08, 0.000, 0.000, 0.000, 16:37:55.839, 1560433075839
67, -930.41, -683.16, -1663.46, -2035.17, -1150.94, -1577.94, -819.68, 846.15, 0.000, 0.000, 0.000, 16:37:55.839, 1560433075839
68, -930.77, -684.75, -1665.61, -2038.01, -1150.53, -1579.78, -821.11, 845.86, 0.000, 0.000, 0.000, 16:37:55.839, 1560433075839
69, -932.49, -683.47, -1665.45, -2038.88, -1152.28, -1580.18, -823.13, 844.83, 0.006, 0.060, -1.030, 16:37:55.839, 1560433075839
70, -933.23, -682.53, -1664.69, -2037.92, -1153.42, -1578.73, -821.87, 845.45, 0.000, 0.000, 0.000, 16:37:55.839, 1560433075839
71, -932.69, -683.45, -1664.33, -2036.56, -1152.61, -1577.05, -820.09, 845.21, 0.000, 0.000, 0.000, 16:37:55.839, 1560433075839
72, -931.71, -683.16, -1664.24, -2036.51, -1151.81, -1577.56, -819.41, 844.72, 0.000, 0.000, 0.000, 16:37:55.840, 1560433075840
73, -931.02, -683.32, -1664.44, -2037.74, -1152.99, -1578.10, -820.44, 845.92, 0.000, 0.000, 0.000, 16:37:55.840, 1560433075840
74, -931.64, -684.01, -1664.78, -2038.81, -1152.28, -1578.86, -820.09, 845.86, 0.000, 0.000, 0.000, 16:37:55.840, 1560433075840
75, -931.46, -683.34, -1663.77, -2037.36, -1151.14, -1577.79, -820.69, 845.52, 0.000, 0.000, 0.000, 16:37:55.840, 1560433075840
76, -932.72, -683.23, -1663.86, -2035.98, -1150.13, -1576.87, -819.77, 844.69, 0.000, 0.000, 0.000, 16:37:55.840, 1560433075840
77, -933.95, -683.29, -1662.84, -2035.06, -1151.11, -1575.26, -820.71, 845.37, 0.000, 0.000, 0.000, 16:37:55.840, 1560433075840
78, -934.91, -684.46, -1664.29, -2037.92, -1152.93, -1578.39, -821.63, 844.69, 0.000, 0.000, 0.000, 16:37:55.841, 1560433075841
79, -936.74, -683.65, -1664.15, -2039.19, -1152.55, -1579.51, -822.92, 847.38, 0.002, 0.052, -1.036, 16:37:55.841, 1560433075841
80, -935.69, -682.89, -1663.60, -2037.41, -1153.48, -1577.70, -821.76, 846.77, 0.000, 0.000, 0.000, 16:37:55.842, 1560433075842
81, -932.34, -683.18, -1664.40, -2036.40, -1152.39, -1577.56, -820.69, 844.40, 0.000, 0.000, 0.000, 16:37:55.843, 1560433075843
82, -930.73, -683.67, -1664.62, -2036.62, -1151.49, -1577.41, -818.72, 844.43, 0.000, 0.000, 0.000, 16:37:55.843, 1560433075843
83, -932.58, -684.57, -1664.24, -2037.63, -1150.69, -1577.94, -818.43, 844.87, 0.000, 0.000, 0.000, 16:37:55.843, 1560433075843
84, -934.39, -684.79, -1665.29, -2039.02, -1152.43, -1579.17, -821.25, 845.81, 0.000, 0.000, 0.000, 16:37:55.844, 1560433075844
85, -932.22, -683.58, -1664.06, -2037.50, -1152.61, -1577.68, -820.40, 845.43, 0.000, 0.000, 0.000, 16:37:55.844, 1560433075844
86, -930.91, -682.47, -1663.39, -2035.71, -1151.87, -1576.09, -819.19, 845.30, 0.000, 0.000, 0.000, 16:37:55.845, 1560433075845
87, -931.60, -682.56, -1664.13, -2037.09, -1152.50, -1577.30, -819.28, 844.85, 0.000, 0.000, 0.000, 16:37:55.845, 1560433075845
88, -932.49, -684.10, -1664.11, -2039.48, -1153.73, -1579.46, -819.10, 845.59, 0.000, 0.000, 0.000, 16:37:55.845, 1560433075845
89, -932.29, -683.56, -1664.78, -2040.87, -1151.43, -1580.58, -820.40, 847.09, 0.002, 0.050, -1.032, 16:37:55.846, 1560433075846
0, 16010.40, 14620.68, -35727.36, 4691.36, 8493.68, 12475.38, 19916.61, 7766.60, 0.000, 0.026, -0.514, 16:38:04.612, 1560433084612
1, 16034.83, 14659.70, -35692.70, 4732.67, 8537.38, 12520.62, 19944.01, 7823.02, 0.000, 0.000, 0.000, 16:38:04.612, 1560433084612
2, 16079.84, 14696.61, -35675.33, 4740.83, 8548.89, 12533.14, 19998.62, 7925.12, 0.000, 0.000, 0.000, 16:38:04.613, 1560433084613
3, 16034.65, 14643.72, -35751.79, 4655.26, 8459.44, 12445.45, 19961.20, 7958.70, 0.000, 0.000, 0.000, 16:38:04.613, 1560433084613
4, 15965.92, 14594.86, -35799.94, 4604.95, 8415.66, 12400.19, 19893.59, 7894.73, 0.000, 0.000, 0.000, 16:38:04.613, 1560433084613
5, 15990.01, 14603.20, -35752.60, 4665.50, 8477.08, 12462.04, 19890.01, 7839.83, 0.000, 0.000, 0.000, 16:38:04.614, 1560433084614
6, 16015.18, 14648.62, -35729.42, 4701.38, 8510.18, 12495.32, 19916.95, 7880.82, 0.000, 0.000, 0.000, 16:38:04.614, 1560433084614
7, 16062.39, 14681.77, -35704.81, 4718.54, 8521.98, 12510.67, 19975.53, 7974.07, 0.004, 0.044, -0.772, 16:38:04.614, 1560433084614
8, 16036.93, 14631.47, -35743.50, 4660.56, 8461.57, 12457.19, 19967.84, 8009.68, 0.000, 0.000, 0.000, 16:38:04.615, 1560433084615
9, 15972.98, 14583.84, -35791.78, 4610.34, 8414.16, 12406.07, 19891.46, 7942.74, 0.000, 0.000, 0.000, 16:38:04.615, 1560433084615
10, 15994.86, 14623.38, -35740.15, 4677.39, 8479.89, 12467.62, 19882.08, 7879.46, 0.000, 0.000, 0.000, 16:38:04.615, 1560433084615
11, 16051.52, 14679.13, -35689.70, 4739.69, 8535.30, 12524.40, 19923.52, 7912.18, 0.000, 0.000, 0.000, 16:38:04.615, 1560433084615
12, 16062.08, 14666.30, -35717.35, 4698.58, 8494.87, 12487.49, 19948.22, 8006.06, 0.000, 0.000, 0.000, 16:38:04.615, 1560433084615
13, 16010.75, 14593.23, -35796.96, 4609.20, 8406.31, 12400.39, 19914.38, 8044.12, 0.000, 0.000, 0.000, 16:38:04.619, 1560433084619
14, 15977.32, 14573.83, -35806.69, 4594.20, 8398.62, 12388.30, 19878.66, 7990.39, 0.000, 0.000, 0.000, 16:38:04.619, 1560433084619
15, 15980.36, 14604.63, -35761.88, 4653.23, 8458.68, 12441.16, 19877.94, 7929.12, 0.000, 0.000, 0.000, 16:38:04.620, 1560433084620
16, 16025.37, 14646.67, -35706.87, 4722.50, 8518.92, 12503.70, 19923.99, 7956.24, 0.000, 0.000, 0.000, 16:38:04.620, 1560433084620
17, 16033.55, 14643.14, -35721.21, 4696.35, 8488.63, 12475.45, 19949.18, 8039.27, 0.006, 0.050, -0.904, 16:38:04.620, 1560433084620
18, 15966.72, 14556.80, -35813.42, 4588.90, 8383.76, 12371.31, 19899.04, 8077.79, 0.000, 0.000, 0.000, 16:38:04.621, 1560433084621
19, 15931.94, 14529.82, -35834.67, 4570.24, 8367.98, 12355.13, 19850.03, 8028.72, 0.000, 0.000, 0.000, 16:38:04.621, 1560433084621
20, 15962.18, 14588.94, -35779.02, 4639.95, 8440.42, 12425.63, 19853.91, 7973.52, 0.000, 0.000, 0.000, 16:38:04.621, 1560433084621
21, 16010.89, 14655.43, -35730.67, 4697.06, 8498.29, 12483.43, 19901.43, 8013.21, 0.000, 0.000, 0.000, 16:38:04.622, 1560433084622
22, 16028.66, 14642.52, -35751.86, 4668.47, 8468.47, 12454.59, 19927.03, 8098.44, 0.000, 0.000, 0.000, 16:38:04.622, 1560433084622
23, 15989.12, 14566.21, -35820.77, 4588.63, 8387.18, 12375.36, 19899.71, 8128.90, 0.000, 0.000, 0.000, 16:38:04.623, 1560433084623
24, 15941.29, 14526.60, -35849.11, 4569.66, 8361.56, 12350.19, 19849.82, 8065.63, 0.000, 0.000, 0.000, 16:38:04.623, 1560433084623
25, 15934.83, 14549.93, -35815.81, 4613.49, 8405.84, 12392.39, 19827.96, 7999.20, 0.000, 0.000, 0.000, 16:38:04.624, 1560433084624
26, 15988.18, 14613.77, -35753.31, 4684.21, 8475.13, 12459.17, 19877.32, 8028.59, 0.000, 0.000, 0.000, 16:38:04.625, 1560433084625
27, 16018.49, 14628.43, -35756.62, 4674.44, 8463.69, 12452.58, 19917.10, 8108.63, 0.010, 0.048, -0.968, 16:38:04.625, 1560433084625
28, 15999.71, 14580.85, -35807.43, 4604.15, 8401.80, 12388.25, 19903.24, 8136.71, 0.000, 0.000, 0.000, 16:38:04.626, 1560433084626
29, 15955.93, 14551.21, -35830.98, 4580.23, 8380.85, 12364.96, 19861.60, 8074.25, 0.000, 0.000, 0.000, 16:38:04.627, 1560433084627
30, 15936.53, 14555.10, -35808.05, 4613.76, 8417.96, 12398.47, 19825.24, 8009.81, 0.000, 0.000, 0.000, 16:38:04.628, 1560433084628
31, 16005.52, 14618.00, -35744.62, 4683.47, 8489.50, 12468.25, 19880.42, 8045.06, 0.000, 0.000, 0.000, 16:38:04.629, 1560433084629
32, 16011.56, 14615.83, -35752.38, 4667.74, 8471.07, 12447.84, 19907.27, 8123.54, 0.000, 0.000, 0.000, 16:38:04.630, 1560433084630
33, 15948.37, 14547.07, -35830.14, 4580.90, 8384.88, 12363.00, 19876.78, 8157.36, 0.000, 0.000, 0.000, 16:38:04.630, 1560433084630
34, 15927.54, 14509.54, -35850.10, 4568.41, 8369.25, 12351.66, 19834.65, 8101.46, 0.000, 0.000, 0.000, 16:38:04.631, 1560433084631
35, 15947.39, 14540.14, -35809.24, 4628.24, 8426.50, 12408.66, 19828.95, 8035.30, 0.000, 0.000, 0.000, 16:38:04.632, 1560433084632
36, 15993.41, 14613.26, -35756.66, 4690.80, 8489.24, 12471.74, 19879.62, 8064.91, 0.008, 0.046, -1.000, 16:38:04.632, 1560433084632
37, 16027.56, 14657.45, -35743.77, 4697.76, 8494.36, 12482.87, 19932.46, 8156.06, 0.000, 0.000, 0.000, 16:38:04.633, 1560433084633
38, 15989.72, 14599.47, -35817.89, 4603.68, 8406.51, 12399.43, 19903.87, 8197.93, 0.000, 0.000, 0.000, 16:38:04.633, 1560433084633
39, 15933.15, 14519.36, -35867.06, 4555.93, 8357.00, 12352.62, 19836.93, 8143.37, 0.000, 0.000, 0.000, 16:38:04.633, 1560433084633
40, 15925.01, 14521.95, -35822.11, 4630.63, 8417.35, 12409.93, 19826.62, 8081.38, 0.000, 0.000, 0.000, 16:38:04.634, 1560433084634
41, 15959.61, 14578.10, -35774.48, 4686.49, 8471.62, 12464.70, 19851.79, 8108.99, 0.000, 0.000, 0.000, 16:38:04.634, 1560433084634
42, 16002.89, 14624.57, -35762.59, 4683.14, 8471.60, 12468.83, 19906.26, 8196.52, 0.000, 0.000, 0.000, 16:38:04.634, 1560433084634
43, 15956.75, 14568.22, -35835.41, 4589.51, 8385.21, 12380.09, 19883.46, 8230.72, 0.000, 0.000, 0.000, 16:38:04.634, 1560433084634
44, 15901.19, 14505.14, -35879.18, 4545.70, 8343.19, 12335.17, 19814.93, 8167.91, 0.000, 0.000, 0.000, 16:38:04.634, 1560433084634
45, 15939.43, 14558.00, -35805.95, 4637.38, 8434.09, 12425.04, 19829.89, 8107.83, 0.000, 0.000, 0.000, 16:38:04.634, 1560433084634
46, 16003.80, 14630.62, -35744.75, 4707.75, 8503.79, 12494.13, 19882.52, 8144.73, 0.004, 0.052, -1.014, 16:38:04.634, 1560433084634
47, 16020.12, 14641.13, -35760.96, 4679.65, 8475.29, 12465.66, 19907.58, 8230.43, 0.000, 0.000, 0.000, 16:38:04.634, 1560433084634
48, 15965.07, 14564.58, -35831.19, 4593.98, 8390.49, 12380.92, 19874.52, 8264.16, 0.000, 0.000, 0.000, 16:38:04.634, 1560433084634
49, 15944.44, 14540.50, -35845.67, 4585.71, 8382.44, 12367.04, 19838.07, 8202.49, 0.000, 0.000, 0.000, 16:38:04.634, 1560433084634
50, 15929.15, 14539.65, -35835.75, 4612.75, 8408.59, 12384.90, 19797.81, 8134.69, 0.000, 0.000, 0.000, 16:38:04.634, 1560433084634
51, 15971.28, 14589.14, -35780.36, 4674.11, 8470.28, 12440.06, 19840.37, 8165.81, 0.000, 0.000, 0.000, 16:38:04.634, 1560433084634
52, 16025.44, 14624.70, -35757.94, 4687.09, 8478.87, 12448.83, 19905.30, 8258.50, 0.000, 0.000, 0.000, 16:38:04.634, 1560433084634
53, 15973.43, 14564.64, -35833.45, 4598.83, 8388.48, 12363.42, 19880.49, 8300.86, 0.000, 0.000, 0.000, 16:38:04.634, 1560433084634
54, 15930.29, 14528.43, -35859.21, 4567.78, 8362.75, 12334.14, 19828.41, 8246.97, 0.000, 0.000, 0.000, 16:38:04.635, 1560433084635
55, 15971.68, 14582.57, -35787.09, 4647.06, 8450.61, 12414.47, 19848.86, 8188.90, 0.000, 0.000, 0.000, 16:38:04.636, 1560433084636
56, 16017.28, 14626.49, -35736.01, 4708.57, 8512.68, 12476.50, 19903.54, 8224.46, 0.002, 0.056, -1.024, 16:38:04.636, 1560433084636
57, 16011.02, 14631.45, -35761.32, 4675.67, 8479.16, 12448.67, 19920.37, 8308.39, 0.000, 0.000, 0.000, 16:38:04.636, 1560433084636
58, 15949.89, 14541.96, -35845.36, 4578.58, 8382.71, 12355.17, 19873.27, 8342.63, 0.000, 0.000, 0.000, 16:38:04.636, 1560433084636
59, 15911.36, 14499.15, -35868.80, 4559.33, 8359.46, 12333.11, 19821.26, 8289.70, 0.000, 0.000, 0.000, 16:38:04.637, 1560433084637
60, 15924.16, 14538.22, -35827.27, 4617.94, 8416.12, 12389.59, 19811.94, 8229.53, 0.000, 0.000, 0.000, 16:38:04.637, 1560433084637
61, 15951.39, 14593.21, -35787.36, 4671.69, 8464.78, 12440.00, 19838.20, 8257.83, 0.000, 0.000, 0.000, 16:38:04.638, 1560433084638
62, 15970.72, 14598.13, -35792.94, 4657.92, 8448.29, 12431.08, 19874.14, 8347.04, 0.000, 0.000, 0.000, 16:38:04.638, 1560433084638
63, 15938.22, 14545.26, -35850.43, 4583.94, 8376.05, 12362.73, 19860.55, 8389.35, 0.000, 0.000, 0.000, 16:38:04.638, 1560433084638
64, 15877.85, 14483.75, -35899.85, 4538.10, 8328.62, 12314.42, 19793.01, 8331.08, 0.000, 0.000, 0.000, 16:38:04.638, 1560433084638
65, 15900.85, 14518.46, -35853.74, 4605.11, 8395.34, 12380.30, 19787.80, 8267.17, 0.000, 0.000, 0.000, 16:38:04.638, 1560433084638
66, 15968.44, 14587.82, -35795.65, 4678.49, 8468.05, 12455.71, 19839.47, 8300.12, 0.002, 0.050, -1.030, 16:38:04.638, 1560433084638
67, 15998.69, 14607.51, -35784.36, 4673.50, 8466.64, 12457.16, 19884.13, 8389.06, 0.000, 0.000, 0.000, 16:38:04.639, 1560433084639
68, 15924.52, 14513.97, -35870.01, 4565.34, 8360.07, 12349.74, 19830.20, 8428.19, 0.000, 0.000, 0.000, 16:38:04.639, 1560433084639
69, 15870.95, 14464.57, -35906.18, 4531.28, 8328.26, 12315.14, 19772.87, 8373.21, 0.000, 0.000, 0.000, 16:38:04.639, 1560433084639
70, 15876.44, 14481.67, -35883.40, 4575.89, 8373.21, 12358.28, 19748.39, 8310.87, 0.000, 0.000, 0.000, 16:38:04.639, 1560433084639
71, 15920.19, 14550.52, -35841.69, 4623.48, 8429.38, 12414.25, 19782.63, 8339.91, 0.000, 0.000, 0.000, 16:38:04.639, 1560433084639
72, 15967.75, 14573.58, -35819.14, 4638.66, 8447.60, 12427.70, 19853.24, 8426.54, 0.000, 0.000, 0.000, 16:38:04.639, 1560433084639
73, 15917.30, 14498.26, -35876.43, 4566.30, 8375.73, 12349.65, 19836.28, 8459.17, 0.000, 0.000, 0.000, 16:38:04.639, 1560433084639
74, 15882.61, 14464.46, -35895.27, 4543.51, 8356.60, 12324.04, 19795.67, 8392.41, 0.000, 0.000, 0.000, 16:38:04.639, 1560433084639
75, 15892.80, 14491.93, -35862.05, 4593.73, 8406.11, 12368.63, 19785.21, 8317.53, 0.000, 0.000, 0.000, 16:38:04.640, 1560433084640
76, 15945.80, 14567.32, -35801.04, 4668.72, 8478.20, 12437.07, 19837.60, 8330.36, 0.010, 0.054, -1.030, 16:38:04.640, 1560433084640
77, 15967.71, 14589.52, -35799.36, 4655.94, 8468.76, 12427.88, 19879.42, 8396.57, 0.000, 0.000, 0.000, 16:38:04.640, 1560433084640
78, 15922.04, 14506.46, -35880.49, 4560.16, 8375.67, 12336.98, 19848.19, 8420.39, 0.000, 0.000, 0.000, 16:38:04.640, 1560433084640
79, 15888.47, 14470.14, -35908.28, 4538.12, 8350.68, 12314.65, 19803.82, 8347.84, 0.000, 0.000, 0.000, 16:38:04.640, 1560433084640
80, 15906.53, 14509.97, -35866.01, 4592.32, 8406.22, 12367.80, 19795.89, 8265.99, 0.000, 0.000, 0.000, 16:38:04.641, 1560433084641
81, 15938.83, 14543.45, -35826.18, 4648.92, 8455.28, 12420.95, 19825.84, 8274.57, 0.000, 0.000, 0.000, 16:38:04.642, 1560433084642
82, 15967.73, 14564.69, -35811.32, 4661.34, 8458.62, 12431.24, 19877.05, 8344.84, 0.000, 0.000, 0.000, 16:38:04.642, 1560433084642
83, 15930.51, 14523.54, -35872.31, 4593.15, 8380.29, 12361.07, 19863.48, 8371.51, 0.000, 0.000, 0.000, 16:38:04.642, 1560433084642
84, 15887.24, 14473.07, -35899.36, 4570.17, 8355.42, 12335.35, 19812.52, 8310.00, 0.000, 0.000, 0.000, 16:38:04.642, 1560433084642
85, 15929.93, 14528.39, -35824.70, 4657.16, 8443.77, 12419.88, 19823.34, 8237.67, 0.000, 0.000, 0.000, 16:38:04.642, 1560433084642
86, 15962.86, 14571.97, -35793.66, 4692.93, 8480.88, 12455.71, 19835.32, 8248.08, 0.012, 0.052, -1.020, 16:38:04.642, 1560433084642
87, 15986.62, 14589.52, -35794.15, 4682.51, 8472.74, 12449.27, 19873.40, 8314.58, 0.000, 0.000, 0.000, 16:38:04.642, 1560433084642
88, 15962.14, 14558.56, -35833.80, 4623.99, 8416.28, 12394.20, 19873.90, 8344.69, 0.000, 0.000, 0.000, 16:38:04.642, 1560433084642
89, 15905.61, 14515.92, -35886.11, 4571.67, 8366.15, 12344.71, 19802.39, 8284.23, 0.000, 0.000, 0.000, 16:38:04.643, 1560433084643
90, 15899.67, 14529.97, -35867.64, 4604.84, 8404.81, 12383.54, 19780.85, 8210.04, 0.000, 0.000, 0.000, 16:38:04.643, 1560433084643
91, 15930.31, 14568.04, -35829.60, 4659.20, 8451.33, 12431.39, 19806.04, 8221.49, 0.000, 0.000, 0.000, 16:38:04.643, 1560433084643
92, 15950.65, 14558.52, -35833.73, 4651.49, 8436.75, 12422.07, 19830.58, 8283.33, 0.000, 0.000, 0.000, 16:38:04.643, 1560433084643
93, 15952.17, 14535.94, -35852.80, 4619.59, 8402.04, 12389.71, 19838.36, 8308.28, 0.000, 0.000, 0.000, 16:38:04.643, 1560433084643
94, 15923.70, 14502.73, -35873.07, 4601.91, 8384.99, 12368.87, 19809.48, 8241.96, 0.000, 0.000, 0.000, 16:38:04.643, 1560433084643
95, 15947.95, 14536.32, -35813.57, 4677.55, 8460.69, 12442.10, 19816.77, 8159.48, 0.000, 0.000, 0.000, 16:38:04.643, 1560433084643
96, 16006.98, 14606.15, -35755.82, 4743.96, 8528.82, 12512.91, 19861.45, 8164.62, 0.010, 0.054, -1.022, 16:38:04.643, 1560433084643
97, 16007.25, 14607.78, -35775.78, 4712.24, 8500.79, 12487.92, 19882.79, 8227.14, 0.000, 0.000, 0.000, 16:38:04.643, 1560433084643
98, 15961.72, 14548.84, -35847.26, 4625.00, 8417.55, 12405.29, 19857.11, 8250.52, 0.000, 0.000, 0.000, 16:38:04.643, 1560433084643
99, 15938.29, 14518.17, -35874.79, 4597.22, 8397.84, 12378.98, 19821.93, 8182.73, 0.000, 0.000, 0.000, 16:38:04.643, 1560433084643
100, 15964.06, 14553.85, -35822.52, 4663.38, 8468.65, 12441.76, 19828.86, 8098.42, 0.000, 0.000, 0.000, 16:38:04.643, 1560433084643
101, 16000.03, 14602.06, -35768.51, 4719.55, 8530.36, 12501.06, 19864.60, 8102.53, 0.000, 0.000, 0.000, 16:38:04.643, 1560433084643
102, 16024.61, 14631.36, -35764.85, 4707.84, 8524.13, 12495.47, 19905.75, 8170.43, 0.000, 0.000, 0.000, 16:38:04.643, 1560433084643
103, 15995.87, 14566.50, -35823.16, 4641.41, 8449.05, 12423.50, 19888.54, 8201.77, 0.000, 0.000, 0.000, 16:38:04.643, 1560433084643
104, 15964.08, 14524.57, -35842.23, 4634.28, 8432.93, 12410.11, 19854.56, 8147.77, 0.000, 0.000, 0.000, 16:38:04.644, 1560433084644
105, 15967.04, 14561.24, -35791.60, 4702.87, 8500.73, 12472.70, 19853.29, 8082.35, 0.000, 0.000, 0.000, 16:38:04.644, 1560433084644
106, 16014.15, 14621.46, -35737.11, 4761.57, 8567.27, 12532.42, 19893.01, 8104.65, 0.008, 0.050, -1.036, 16:38:04.644, 1560433084644
107, 16047.84, 14648.28, -35736.62, 4748.38, 8563.47, 12526.23, 19937.22, 8192.96, 0.000, 0.000, 0.000, 16:38:04.644, 1560433084644
108, 15992.54, 14559.66, -35822.85, 4654.42, 8465.86, 12430.36, 19906.51, 8239.46, 0.000, 0.000, 0.000, 16:38:04.644, 1560433084644
109, 15904.74, 14470.50, -35900.68, 4581.64, 8384.65, 12351.44, 19814.31, 8188.65, 0.000, 0.000, 0.000, 16:38:04.644, 1560433084644
110, 15916.43, 14515.80, -35855.46, 4636.67, 8439.86, 12404.59, 19801.05, 8124.66, 0.000, 0.000, 0.000, 16:38:04.644, 1560433084644
111, 15980.47, 14619.78, -35780.27, 4717.69, 8517.33, 12487.20, 19855.59, 8152.13, 0.000, 0.000, 0.000, 16:38:04.644, 1560433084644
112, 16025.19, 14654.23, -35765.54, 4717.78, 8520.69, 12494.92, 19904.32, 8236.98, 0.000, 0.000, 0.000, 16:38:04.644, 1560433084644
113, 15966.66, 14559.66, -35834.92, 4646.35, 8433.83, 12416.66, 19876.04, 8271.60, 0.000, 0.000, 0.000, 16:38:04.644, 1560433084644
114, 15900.58, 14483.91, -35888.88, 4604.03, 8375.56, 12363.15, 19790.30, 8209.10, 0.000, 0.000, 0.000, 16:38:04.645, 1560433084645
115, 15921.91, 14509.46, -35839.28, 4665.66, 8438.19, 12422.92, 19769.42, 8133.55, 0.000, 0.000, 0.000, 16:38:04.645, 1560433084645
116, 15974.41, 14580.00, -35780.43, 4731.60, 8506.45, 12491.36, 19819.92, 8150.92, 0.006, 0.054, -1.042, 16:38:04.645, 1560433084645
117, 16017.33, 14629.26, -35768.24, 4733.90, 8507.48, 12498.63, 19864.51, 8225.62, 0.000, 0.000, 0.000, 16:38:04.645, 1560433084645
118, 15964.40, 14558.45, -35836.57, 4649.27, 8419.48, 12413.40, 19835.59, 8253.47, 0.000, 0.000, 0.000, 16:38:04.645, 1560433084645
119, 15929.35, 14521.82, -35861.96, 4628.53, 8395.94, 12390.31, 19794.26, 8185.01, 0.000, 0.000, 0.000, 16:38:04.648, 1560433084648
120, 15935.25, 14546.34, -35831.95, 4679.65, 8444.73, 12437.65, 19781.58, 8098.24, 0.000, 0.000, 0.000, 16:38:05.089, 1560433085089
121, 15975.33, 14616.61, -35782.17, 4731.10, 8504.03, 12492.68, 19818.71, 8102.82, 0.000, 0.000, 0.000, 16:38:05.089, 1560433085089
122, 15991.40, 14628.08, -35790.06, 4715.90, 8489.95, 12479.00, 19847.54, 8175.33, 0.000, 0.000, 0.000, 16:38:05.089, 1560433085089
123, 15956.46, 14561.63, -35845.96, 4648.78, 8423.61, 12415.77, 19839.25, 8210.04, 0.000, 0.000, 0.000, 16:38:05.090, 1560433085090
124, 15909.57, 14506.28, -35889.21, 4605.89, 8386.89, 12374.44, 19786.48, 8148.40, 0.000, 0.000, 0.000, 16:38:05.090, 1560433085090
125, 15918.26, 14533.57, -35855.15, 4657.16, 8442.95, 12426.12, 19782.52, 8075.42, 0.000, 0.000, 0.000, 16:38:05.090, 1560433085090
126, 15952.28, 14577.83, -35801.70, 4719.10, 8504.70, 12486.00, 19827.31, 8095.31, 0.010, 0.054, -1.036, 16:38:05.090, 1560433085090
127, 15957.51, 14575.19, -35809.91, 4704.06, 8487.25, 12470.73, 19864.08, 8185.07, 0.000, 0.000, 0.000, 16:38:05.090, 1560433085090
128, 15920.45, 14508.94, -35864.98, 4629.02, 8414.58, 12397.53, 19851.08, 8237.47, 0.000, 0.000, 0.000, 16:38:05.090, 1560433085090
129, 15896.18, 14480.42, -35885.46, 4604.35, 8393.71, 12373.95, 19809.97, 8191.53, 0.000, 0.000, 0.000, 16:38:05.090, 1560433085090
130, 15899.82, 14515.63, -35858.95, 4643.15, 8441.20, 12413.44, 19783.19, 8121.53, 0.000, 0.000, 0.000, 16:38:05.090, 1560433085090
131, 15957.20, 14583.15, -35797.75, 4712.49, 8518.56, 12486.42, 19829.42, 8139.86, 0.000, 0.000, 0.000, 16:38:05.090, 1560433085090
132, 15972.51, 14589.47, -35796.74, 4704.44, 8509.29, 12479.34, 19864.08, 8226.09, 0.000, 0.000, 0.000, 16:38:05.091, 1560433085091
133, 15918.71, 14512.00, -35873.39, 4618.74, 8417.49, 12391.87, 19829.42, 8275.76, 0.000, 0.000, 0.000, 16:38:05.091, 1560433085091
134, 15875.57, 14467.64, -35910.67, 4587.38, 8380.92, 12356.33, 19778.41, 8230.54, 0.000, 0.000, 0.000, 16:38:05.091, 1560433085091
135, 15884.80, 14493.36, -35868.71, 4641.29, 8437.78, 12411.57, 19777.09, 8166.21, 0.000, 0.000, 0.000, 16:38:05.091, 1560433085091
136, 15938.54, 14562.85, -35807.36, 4704.28, 8508.59, 12481.28, 19822.85, 8190.28, 0.004, 0.054, -1.034, 16:38:05.091, 1560433085091
137, 15971.37, 14596.20, -35805.95, 4697.82, 8504.41, 12479.29, 19864.75, 8273.90, 0.000, 0.000, 0.000, 16:38:05.091, 1560433085091
138, 15942.38, 14554.85, -35864.69, 4627.73, 8430.36, 12408.06, 19850.52, 8310.87, 0.000, 0.000, 0.000, 16:38:05.091, 1560433085091
139, 15906.48, 14511.40, -35871.53, 4625.38, 8419.23, 12394.51, 19816.56, 8255.37, 0.000, 0.000, 0.000, 16:38:05.091, 1560433085091
140, 15894.21, 14514.15, -35852.24, 4659.82, 8453.14, 12424.57, 19790.17, 8184.14, 0.000, 0.000, 0.000, 16:38:05.092, 1560433085092
141, 15921.77, 14552.08, -35824.66, 4700.04, 8491.05, 12462.62, 19805.68, 8195.47, 0.000, 0.000, 0.000, 16:38:05.092, 1560433085092
142, 15946.27, 14569.60, -35826.02, 4690.13, 8482.46, 12457.90, 19837.35, 8274.37, 0.000, 0.000, 0.000, 16:38:05.092, 1560433085092
143, 15928.28, 14533.46, -35859.73, 4630.07, 8428.78, 12405.64, 19837.64, 8317.06, 0.000, 0.000, 0.000, 16:38:05.092, 1560433085092
144, 15877.96, 14477.60, -35903.07, 4586.98, 8380.36, 12358.12, 19779.26, 8264.76, 0.000, 0.000, 0.000, 16:38:05.092, 1560433085092
145, 15887.02, 14494.17, -35873.09, 4639.22, 8425.22, 12403.21, 19759.19, 8191.85, 0.008, 0.056, -1.034, 16:38:05.092, 1560433085092
146, 15916.48, 14532.52, -35833.33, 4696.37, 8477.01, 12453.74, 19786.68, 8203.00, 0.000, 0.000, 0.000, 16:38:05.092, 1560433085092
147, 15929.55, 14540.23, -35849.83, 4677.55, 8453.79, 12432.51, 19810.48, 8277.59, 0.000, 0.000, 0.000, 16:38:05.092, 1560433085092
148, 15873.74, 14477.74, -35926.79, 4583.25, 8364.16, 12343.93, 19790.44, 8321.22, 0.000, 0.000, 0.000, 16:38:05.092, 1560433085092
149, 15831.61, 14446.13, -35950.97, 4553.97, 8342.97, 12318.47, 19758.25, 8271.17, 0.000, 0.000, 0.000, 16:38:05.093, 1560433085093
150, 15847.01, 14474.92, -35908.34, 4613.04, 8399.94, 12373.39, 19748.32, 8196.81, 0.000, 0.000, 0.000, 16:38:05.093, 1560433085093
151, 15903.33, 14530.56, -35846.09, 4689.17, 8472.52, 12444.98, 19792.71, 8206.84, 0.000, 0.000, 0.000, 16:38:05.093, 1560433085093
152, 15925.82, 14558.74, -35853.52, 4672.36, 8459.06, 12433.63, 19824.83, 8294.98, 0.000, 0.000, 0.000, 16:38:05.093, 1560433085093
153, 15885.90, 14513.64, -35916.32, 4591.45, 8383.45, 12359.37, 19811.94, 8345.72, 0.000, 0.000, 0.000, 16:38:05.093, 1560433085093
154, 15820.07, 14429.39, -35963.38, 4542.28, 8334.21, 12308.77, 19753.62, 8300.36, 0.000, 0.000, 0.000, 16:38:05.093, 1560433085093
155, 15827.85, 14445.51, -35918.54, 4605.26, 8394.11, 12367.93, 19742.42, 8234.34, 0.004, 0.052, -1.034, 16:38:05.094, 1560433085094
156, 15889.09, 14517.82, -35849.89, 4685.62, 8471.96, 12444.94, 19789.12, 8251.97, 0.000, 0.000, 0.000, 16:38:05.094, 1560433085094
157, 15923.85, 14537.86, -35848.44, 4677.68, 8468.63, 12442.01, 19827.67, 8334.27, 0.000, 0.000, 0.000, 16:38:05.094, 1560433085094
158, 15866.70, 14467.10, -35930.29, 4576.21, 8373.32, 12349.20, 19790.30, 8373.83, 0.000, 0.000, 0.000, 16:38:05.094, 1560433085094
159, 15813.55, 14427.29, -35960.63, 4540.18, 8343.59, 12316.79, 19744.86, 8327.88, 0.000, 0.000, 0.000, 16:38:05.094, 1560433085094
160, 15848.91, 14476.51, -35899.29, 4611.92, 8423.10, 12391.78, 19753.38, 8259.48, 0.000, 0.000, 0.000, 16:38:05.094, 1560433085094
161, 15900.00, 14544.24, -35847.41, 4678.91, 8489.17, 12461.21, 19789.96, 8276.90, 0.000, 0.000, 0.000, 16:38:05.094, 1560433085094
162, 15935.54, 14581.74, -35834.90, 4693.73, 8495.92, 12477.84, 19834.04, 8361.70, 0.000, 0.000, 0.000, 16:38:05.095, 1560433085095
163, 15884.11, 14492.65, -35906.42, 4604.50, 8401.31, 12388.03, 19801.48, 8411.39, 0.000, 0.000, 0.000, 16:38:05.095, 1560433085095
164, 15817.86, 14413.68, -35958.30, 4544.36, 8338.00, 12324.28, 19724.47, 8361.99, 0.000, 0.000, 0.000, 16:38:05.095, 1560433085095
165, 15839.81, 14456.48, -35911.34, 4610.63, 8400.03, 12388.99, 19718.98, 8287.13, 0.006, 0.048, -1.034, 16:38:05.095, 1560433085095
166, 15881.94, 14512.07, -35858.72, 4687.76, 8472.63, 12465.92, 19764.78, 8296.41, 0.000, 0.000, 0.000, 16:38:05.095, 1560433085095
167, 15911.36, 14543.45, -35855.89, 4684.63, 8469.34, 12467.67, 19811.09, 8375.67, 0.000, 0.000, 0.000, 16:38:05.095, 1560433085095
168, 15888.65, 14506.24, -35909.06, 4614.63, 8395.58, 12397.82, 19801.83, 8426.25, 0.000, 0.000, 0.000, 16:38:05.095, 1560433085095
169, 15836.61, 14447.79, -35957.41, 4561.79, 8348.78, 12346.75, 19745.11, 8384.94, 0.000, 0.000, 0.000, 16:38:05.095, 1560433085095
170, 15844.75, 14472.22, -35921.46, 4616.69, 8404.28, 12394.58, 19725.88, 8308.05, 0.000, 0.000, 0.000, 16:38:05.096, 1560433085096
171, 15892.29, 14532.75, -35864.20, 4689.35, 8467.51, 12457.34, 19758.74, 8316.26, 0.000, 0.000, 0.000, 16:38:05.096, 1560433085096
172, 15920.50, 14553.80, -35857.05, 4688.26, 8466.26, 12457.43, 19812.88, 8395.72, 0.000, 0.000, 0.000, 16:38:05.096, 1560433085096
173, 15879.73, 14497.92, -35924.04, 4599.61, 8382.46, 12372.20, 19791.44, 8434.16, 0.000, 0.000, 0.000, 16:38:05.096, 1560433085096
174, 15839.27, 14466.76, -35960.56, 4558.95, 8347.01, 12334.50, 19748.08, 8383.76, 0.000, 0.000, 0.000, 16:38:05.096, 1560433085096
175, 15851.95, 14481.45, -35926.25, 4613.44, 8399.52, 12381.41, 19735.90, 8304.81, 0.006, 0.052, -1.034, 16:38:05.098, 1560433085098
176, 15911.85, 14528.70, -35870.68, 4686.27, 8465.79, 12443.24, 19767.68, 8310.51, 0.000, 0.000, 0.000, 16:38:05.098, 1560433085098
177, 15946.67, 14557.29, -35857.00, 4688.35, 8468.54, 12446.66, 19808.92, 8386.02, 0.000, 0.000, 0.000, 16:38:05.098, 1560433085098
178, 15917.26, 14517.01, -35914.34, 4611.57, 8395.40, 12371.53, 19797.72, 8426.36, 0.000, 0.000, 0.000, 16:38:05.099, 1560433085099
179, 15873.60, 14462.94, -35950.07, 4580.10, 8355.48, 12329.76, 19738.54, 8371.73, 0.000, 0.000, 0.000, 16:38:05.099, 1560433085099
180, 15866.18, 14475.10, -35906.49, 4635.35, 8406.47, 12376.12, 19716.50, 8292.25, 0.000, 0.000, 0.000, 16:38:05.099, 1560433085099
181, 15901.86, 14527.90, -35850.21, 4702.96, 8471.89, 12438.50, 19751.48, 8295.74, 0.000, 0.000, 0.000, 16:38:05.099, 1560433085099
182, 15928.25, 14550.76, -35850.16, 4699.34, 8468.34, 12438.28, 19793.12, 8365.79, 0.000, 0.000, 0.000, 16:38:05.099, 1560433085099
183, 15907.65, 14509.21, -35901.50, 4626.27, 8398.20, 12371.98, 19785.85, 8411.74, 0.000, 0.000, 0.000, 16:38:05.100, 1560433085100
184, 15851.05, 14465.00, -35940.73, 4582.15, 8363.31, 12331.70, 19745.42, 8363.02, 0.000, 0.000, 0.000, 16:38:05.100, 1560433085100
185, 15848.68, 14485.00, -35912.19, 4621.02, 8411.05, 12371.24, 19723.98, 8281.86, 0.006, 0.050, -1.034, 16:38:05.100, 1560433085100
186, 15884.51, 14527.25, -35875.82, 4670.35, 8462.79, 12423.79, 19749.24, 8284.96, 0.000, 0.000, 0.000, 16:38:05.100, 1560433085100
187, 15904.94, 14530.87, -35878.86, 4661.05, 8456.11, 12418.43, 19781.25, 8355.93, 0.000, 0.000, 0.000, 16:38:05.100, 1560433085100
188, 15884.11, 14492.40, -35923.03, 4601.69, 8402.09, 12362.46, 19785.00, 8400.52, 0.000, 0.000, 0.000, 16:38:05.100, 1560433085100
189, 15848.50, 14454.54, -35944.58, 4568.88, 8376.47, 12333.45, 19748.50, 8351.91, 0.000, 0.000, 0.000, 16:38:05.101, 1560433085101
190, 15856.33, 14465.89, -35911.09, 4615.68, 8425.11, 12384.63, 19735.12, 8276.69, 0.000, 0.000, 0.000, 16:38:05.101, 1560433085101
191, 15905.99, 14525.57, -35862.05, 4687.99, 8489.04, 12454.06, 19766.54, 8285.95, 0.000, 0.000, 0.000, 16:38:05.101, 1560433085101
192, 15914.71, 14529.39, -35868.83, 4680.54, 8476.88, 12446.34, 19796.58, 8365.97, 0.000, 0.000, 0.000, 16:38:05.101, 1560433085101
193, 15892.85, 14486.41, -35910.09, 4620.80, 8421.98, 12394.73, 19803.31, 8415.28, 0.000, 0.000, 0.000, 16:38:05.101, 1560433085101
194, 15846.58, 14435.70, -35958.79, 4573.21, 8372.25, 12351.28, 19758.85, 8376.29, 0.000, 0.000, 0.000, 16:38:05.104, 1560433085104
195, 15824.01, 14437.21, -35953.83, 4595.25, 8389.86, 12368.45, 19709.30, 8305.44, 0.004, 0.052, -1.026, 16:38:05.105, 1560433085105
196, 15864.40, 14485.92, -35894.75, 4664.79, 8460.51, 12442.25, 19744.86, 8318.22, 0.000, 0.000, 0.000, 16:38:05.106, 1560433085106
197, 15895.08, 14521.53, -35870.73, 4678.44, 8473.21, 12464.63, 19798.86, 8408.79, 0.000, 0.000, 0.000, 16:38:05.106, 1560433085106
198, 15880.38, 14491.51, -35917.84, 4615.57, 8410.38, 12409.08, 19800.25, 8460.00, 0.000, 0.000, 0.000, 16:38:05.107, 1560433085107
199, 15827.85, 14434.15, -35975.22, 4563.85, 8350.03, 12353.00, 19733.73, 8412.12, 0.000, 0.000, 0.000, 16:38:05.107, 1560433085107
200, 15840.14, 14459.03, -35943.48, 4611.34, 8392.79, 12392.90, 19713.08, 8336.17, 0.000, 0.000, 0.000, 16:38:05.107, 1560433085107
201, 15896.36, 14545.51, -35884.81, 4684.55, 8465.43, 12464.09, 19751.92, 8340.26, 0.000, 0.000, 0.000, 16:38:05.108, 1560433085108
202, 15916.48, 14570.74, -35879.85, 4684.81, 8460.49, 12461.79, 19787.22, 8416.06, 0.000, 0.000, 0.000, 16:38:05.108, 1560433085108
203, 15876.73, 14494.44, -35935.32, 4625.54, 8388.68, 12388.99, 19777.47, 8460.45, 0.000, 0.000, 0.000, 16:38:05.108, 1560433085108
204, 15841.60, 14432.10, -35963.75, 4599.21, 8357.47, 12350.99, 19739.05, 8409.87, 0.000, 0.000, 0.000, 16:38:05.108, 1560433085108
205, 15821.08, 14452.84, -35944.04, 4628.11, 8390.49, 12375.58, 19708.74, 8327.34, 0.006, 0.060, -1.030, 16:38:05.108, 1560433085108
206, 15870.68, 14521.10, -35884.03, 4696.91, 8463.58, 12448.33, 19749.58, 8327.23, 0.000, 0.000, 0.000, 16:38:05.108, 1560433085108
207, 15908.88, 14545.46, -35874.37, 4692.79, 8463.49, 12449.94, 19791.89, 8396.52, 0.000, 0.000, 0.000, 16:38:05.108, 1560433085108
208, 15882.95, 14501.05, -35936.11, 4614.36, 8381.81, 12370.30, 19772.60, 8438.54, 0.000, 0.000, 0.000, 16:38:05.109, 1560433085109
209, 15839.45, 14460.42, -35973.54, 4577.66, 8343.01, 12326.27, 19720.00, 8384.21, 0.000, 0.000, 0.000, 16:38:05.109, 1560433085109
210, 15858.52, 14486.01, -35918.52, 4642.52, 8414.43, 12390.11, 19730.20, 8301.86, 0.000, 0.000, 0.000, 16:38:05.111, 1560433085111
211, 15920.72, 14573.23, -35851.32, 4721.31, 8494.76, 12469.10, 19781.99, 8300.16, 0.000, 0.000, 0.000, 16:38:05.111, 1560433085111
212, 15951.12, 14575.97, -35859.04, 4714.70, 8481.35, 12458.01, 19805.90, 8366.39, 0.000, 0.000, 0.000, 16:38:05.111, 1560433085111
213, 15896.81, 14509.03, -35931.86, 4625.89, 8393.15, 12367.87, 19768.17, 8400.88, 0.000, 0.000, 0.000, 16:38:05.112, 1560433085112
214, 15835.96, 14445.35, -35970.39, 4582.31, 8351.86, 12319.59, 19721.84, 8343.15, 0.000, 0.000, 0.000, 16:38:05.112, 1560433085112
215, 15841.26, 14457.02, -35938.61, 4630.01, 8398.35, 12364.90, 19708.16, 8260.51, 0.010, 0.052, -1.030, 16:38:05.112, 1560433085112
216, 15872.02, 14505.70, -35888.99, 4692.15, 8462.35, 12429.27, 19731.67, 8260.69, 0.000, 0.000, 0.000, 16:38:05.112, 1560433085112
217, 15922.31, 14561.02, -35857.45, 4713.18, 8489.37, 12459.60, 19785.12, 8333.94, 0.000, 0.000, 0.000, 16:38:05.112, 1560433085112
218, 15922.51, 14523.56, -35898.49, 4648.85, 8435.64, 12407.03, 19795.40, 8378.33, 0.000, 0.000, 0.000, 16:38:05.112, 1560433085112
219, 15844.35, 14439.99, -35968.63, 4569.79, 8364.94, 12334.03, 19722.08, 8324.59, 0.000, 0.000, 0.000, 16:38:05.113, 1560433085113
220, 15843.81, 14472.02, -35924.64, 4627.91, 8425.69, 12395.70, 19705.52, 8239.52, 0.000, 0.000, 0.000, 16:38:05.113, 1560433085113
221, 15897.32, 14526.69, -35866.52, 4704.13, 8500.95, 12473.23, 19744.12, 8244.08, 0.000, 0.000, 0.000, 16:38:05.113, 1560433085113
222, 15938.00, 14572.98, -35847.32, 4723.79, 8518.00, 12493.91, 19796.96, 8318.31, 0.000, 0.000, 0.000, 16:38:05.113, 1560433085113
223, 15899.44, 14520.05, -35902.62, 4657.83, 8450.32, 12427.19, 19788.74, 8363.08, 0.000, 0.000, 0.000, 16:38:05.113, 1560433085113
224, 15839.85, 14432.57, -35959.98, 4602.31, 8393.48, 12369.88, 19735.23, 8320.82, 0.000, 0.000, 0.000, 16:38:05.114, 1560433085114
225, 15820.23, 14441.55, -35943.13, 4634.21, 8432.37, 12405.46, 19707.85, 8249.80, 0.006, 0.056, -1.036, 16:38:05.114, 1560433085114
226, 15893.41, 14534.60, -35860.96, 4726.97, 8531.21, 12503.41, 19766.52, 8257.14, 0.000, 0.000, 0.000, 16:38:05.114, 1560433085114
227, 15942.43, 14577.90, -35839.61, 4747.00, 8549.97, 12528.71, 19826.87, 8332.15, 0.000, 0.000, 0.000, 16:38:05.114, 1560433085114
228, 15912.38, 14539.12, -35886.39, 4676.74, 8481.57, 12463.58, 19821.21, 8382.91, 0.000, 0.000, 0.000, 16:38:05.114, 1560433085114
229, 15844.59, 14464.39, -35944.02, 4609.62, 8411.59, 12392.68, 19745.98, 8340.06, 0.000, 0.000, 0.000, 16:38:05.114, 1560433085114
230, 15855.86, 14475.32, -35911.92, 4661.28, 8456.38, 12431.77, 19718.28, 8260.40, 0.000, 0.000, 0.000, 16:38:05.115, 1560433085115
231, 15906.31, 14549.96, -35865.03, 4721.65, 8516.33, 12486.94, 19740.55, 8256.47, 0.000, 0.000, 0.000, 16:38:05.115, 1560433085115
232, 15950.96, 14579.08, -35851.37, 4727.35, 8522.67, 12494.02, 19790.32, 8334.94, 0.000, 0.000, 0.000, 16:38:05.115, 1560433085115
233, 15888.76, 14486.88, -35919.86, 4639.53, 8429.54, 12405.13, 19768.84, 8386.02, 0.000, 0.000, 0.000, 16:38:05.115, 1560433085115
234, 15835.52, 14447.07, -35962.64, 4596.81, 8381.81, 12356.51, 19721.12, 8339.82, 0.000, 0.000, 0.000, 16:38:05.115, 1560433085115
235, 15831.83, 14456.35, -35948.78, 4626.56, 8410.63, 12382.37, 19686.16, 8258.92, 0.004, 0.054, -1.042, 16:38:05.116, 1560433085116
236, 15889.54, 14507.24, -35894.09, 4696.55, 8477.21, 12448.11, 19717.77, 8253.92, 0.000, 0.000, 0.000, 16:38:05.116, 1560433085116
237, 15930.40, 14545.98, -35881.70, 4704.06, 8483.09, 12459.15, 19762.61, 8320.86, 0.000, 0.000, 0.000, 16:38:05.116, 1560433085116
238, 15906.31, 14520.90, -35924.15, 4647.02, 8427.90, 12407.74, 19773.78, 8366.10, 0.000, 0.000, 0.000, 16:38:05.116, 1560433085116
239, 15870.90, 14493.23, -35953.61, 4610.63, 8394.42, 12372.56, 19735.47, 8318.00, 0.000, 0.000, 0.000, 16:38:05.116, 1560433085116
240, 15869.04, 14501.16, -35922.96, 4659.11, 8435.39, 12409.71, 19708.96, 8233.15, 0.000, 0.000, 0.000, 16:38:05.571, 1560433085571
241, 15922.35, 14553.64, -35864.18, 4730.30, 8500.57, 12471.63, 19737.33, 8222.71, 0.000, 0.000, 0.000, 16:38:05.572, 1560433085572
242, 15946.67, 14573.43, -35852.69, 4740.56, 8505.69, 12484.19, 19785.72, 8301.97, 0.000, 0.000, 0.000, 16:38:05.572, 1560433085572
243, 15917.82, 14526.87, -35911.29, 4676.86, 8431.44, 12415.34, 19771.64, 8348.71, 0.000, 0.000, 0.000, 16:38:05.572, 1560433085572
244, 15861.65, 14474.41, -35967.98, 4621.98, 8376.56, 12356.00, 19711.58, 8300.90, 0.000, 0.000, 0.000, 16:38:05.572, 1560433085572
245, 15875.06, 14503.44, -35922.45, 4674.98, 8436.06, 12408.48, 19704.72, 8221.89, 0.004, 0.060, -1.042, 16:38:05.573, 1560433085573
246, 15926.65, 14562.03, -35865.86, 4738.39, 8506.65, 12474.75, 19743.32, 8226.98, 0.000, 0.000, 0.000, 16:38:05.573, 1560433085573
247, 15959.79, 14577.96, -35861.61, 4734.46, 8510.56, 12479.60, 19789.68, 8308.50, 0.000, 0.000, 0.000, 16:38:05.573, 1560433085573
248, 15879.64, 14489.96, -35939.44, 4636.58, 8419.37, 12386.75, 19763.66, 8363.51, 0.000, 0.000, 0.000, 16:38:05.573, 1560433085573
249, 15826.02, 14437.50, -35978.62, 4598.96, 8386.11, 12349.83, 19721.21, 8323.92, 0.000, 0.000, 0.000, 16:38:05.573, 1560433085573
250, 15857.60, 14478.99, -35930.14, 4660.81, 8453.83, 12412.50, 19720.34, 8246.99, 0.000, 0.000, 0.000, 16:38:05.573, 1560433085573
251, 15903.74, 14534.53, -35874.10, 4728.65, 8522.07, 12482.67, 19756.79, 8253.25, 0.000, 0.000, 0.000, 16:38:05.574, 1560433085574
252, 15910.96, 14528.63, -35891.51, 4706.29, 8501.11, 12467.53, 19786.95, 8333.27, 0.000, 0.000, 0.000, 16:38:05.574, 1560433085574
253, 15877.09, 14490.95, -35945.31, 4643.40, 8433.85, 12406.29, 19786.12, 8388.10, 0.000, 0.000, 0.000, 16:38:05.574, 1560433085574
254, 15823.74, 14436.97, -35992.57, 4592.08, 8386.84, 12358.30, 19739.36, 8352.80, 0.000, 0.000, 0.000, 16:38:05.574, 1560433085574
255, 15817.08, 14436.63, -35969.45, 4628.15, 8425.40, 12396.68, 19714.53, 8276.76, 0.006, 0.060, -1.042, 16:38:05.574, 1560433085574
0, 15867.97, 14509.01, -35902.76, 4705.24, 8507.92, 12479.00, 19756.01, 8279.51, 0.000, 0.000, 0.000, 16:38:05.574, 1560433085574
1, 15915.98, 14547.77, -35877.97, 4725.54, 8529.47, 12503.86, 19811.49, 8355.73, 0.000, 0.000, 0.000, 16:38:05.574, 1560433085574
2, 15904.99, 14511.06, -35909.51, 4675.00, 8479.49, 12459.11, 19819.00, 8409.15, 0.000, 0.000, 0.000, 16:38:05.575, 1560433085575
3, 15844.32, 14452.17, -35964.02, 4614.90, 8420.10, 12402.80, 19761.13, 8368.67, 0.000, 0.000, 0.000, 16:38:05.575, 1560433085575
4, 15829.42, 14452.70, -35947.62, 4646.95, 8444.58, 12430.70, 19721.79, 8285.41, 0.000, 0.000, 0.000, 16:38:05.575, 1560433085575
5, 15870.88, 14497.86, -35891.07, 4726.66, 8508.93, 12501.42, 19751.21, 8282.84, 0.000, 0.000, 0.000, 16:38:05.576, 1560433085576
6, 15916.63, 14532.61, -35881.75, 4738.77, 8509.38, 12511.52, 19783.44, 8354.81, 0.000, 0.000, 0.000, 16:38:05.576, 1560433085576
7, 15887.91, 14493.76, -35941.18, 4666.89, 8431.77, 12440.47, 19766.85, 8409.58, 0.000, 0.000, 0.000, 16:38:05.576, 1560433085576
8, 15839.72, 14446.02, -35985.57, 4622.88, 8384.61, 12395.20, 19712.81, 8367.69, 0.008, 0.054, -1.042, 16:38:05.576, 1560433085576
9, 15861.67, 14463.79, -35943.30, 4680.30, 8437.51, 12446.41, 19695.22, 8288.65, 0.000, 0.000, 0.000, 16:38:05.576, 1560433085576
10, 15904.90, 14527.25, -35886.60, 4748.34, 8505.08, 12510.65, 19722.98, 8285.81, 0.000, 0.000, 0.000, 16:38:05.576, 1560433085576
11, 15937.22, 14564.17, -35863.55, 4762.40, 8520.71, 12525.02, 19771.73, 8354.88, 0.000, 0.000, 0.000, 16:38:05.576, 1560433085576
12, 15908.21, 14524.45, -35909.39, 4695.63, 8455.02, 12455.84, 19762.88, 8395.83, 0.000, 0.000, 0.000, 16:38:05.576, 1560433085576
13, 15863.03, 14465.76, -35950.59, 4647.37, 8411.63, 12405.08, 19713.52, 8343.24, 0.000, 0.000, 0.000, 16:38:05.579, 1560433085579
14, 15855.48, 14465.22, -35937.07, 4678.53, 8440.00, 12428.15, 19681.89, 8251.79, 0.000, 0.000, 0.000, 16:38:05.579, 1560433085579
15, 15887.69, 14513.79, -35904.30, 4719.35, 8487.02, 12473.48, 19700.85, 8244.62, 0.000, 0.000, 0.000, 16:38:05.579, 1560433085579
16, 15926.20, 14555.25, -35883.78, 4730.50, 8505.46, 12495.21, 19759.86, 8321.73, 0.000, 0.000, 0.000, 16:38:05.580, 1560433085580
17, 15896.09, 14512.36, -35930.25, 4670.49, 8445.96, 12434.81, 19768.69, 8376.65, 0.000, 0.000, 0.000, 16:38:05.580, 1560433085580
18, 15828.23, 14439.47, -35987.78, 4604.48, 8380.74, 12362.68, 19710.26, 8338.50, 0.008, 0.054, -1.034, 16:38:05.580, 1560433085580
19, 15836.63, 14460.26, -35949.56, 4657.03, 8432.82, 12408.59, 19694.10, 8264.27, 0.000, 0.000, 0.000, 16:38:05.580, 1560433085580
20, 15894.28, 14518.08, -35889.23, 4732.04, 8509.58, 12481.19, 19738.82, 8266.26, 0.000, 0.000, 0.000, 16:38:05.581, 1560433085581
21, 15937.37, 14549.55, -35874.64, 4736.13, 8520.84, 12489.46, 19781.54, 8338.25, 0.000, 0.000, 0.000, 16:38:05.581, 1560433085581
22, 15894.39, 14479.39, -35936.55, 4654.06, 8439.33, 12404.75, 19770.27, 8391.38, 0.000, 0.000, 0.000, 16:38:05.581, 1560433085581
23, 15833.10, 14416.45, -35977.99, 4606.27, 8393.86, 12354.57, 19723.58, 8359.95, 0.000, 0.000, 0.000, 16:38:05.581, 1560433085581
24, 15833.46, 14444.97, -35944.98, 4648.72, 8444.24, 12397.64, 19713.30, 8286.69, 0.000, 0.000, 0.000, 16:38:05.581, 1560433085581
25, 15897.70, 14519.33, -35880.41, 4725.23, 8527.55, 12476.36, 19758.76, 8288.16, 0.000, 0.000, 0.000, 16:38:05.582, 1560433085582
26, 15945.38, 14543.88, -35862.81, 4739.53, 8546.28, 12493.78, 19818.80, 8365.27, 0.000, 0.000, 0.000, 16:38:05.582, 1560433085582
27, 15884.18, 14474.72, -35944.55, 4638.86, 8452.76, 12401.15, 19797.97, 8425.80, 0.000, 0.000, 0.000, 16:38:05.583, 1560433085583
28, 15804.14, 14413.81, -36008.79, 4563.58, 8387.20, 12332.04, 19731.67, 8391.78, 0.006, 0.052, -1.032, 16:38:05.583, 1560433085583
29, 15790.57, 14408.63, -35990.04, 4600.46, 8421.15, 12364.56, 19692.24, 8314.83, 0.000, 0.000, 0.000, 16:38:05.583, 1560433085583
30, 15834.44, 14440.99, -35940.00, 4668.68, 8484.61, 12425.47, 19702.12, 8309.64, 0.000, 0.000, 0.000, 16:38:05.583, 1560433085583
31, 15889.65, 14474.72, -35911.29, 4690.00, 8507.16, 12446.26, 19742.92, 8380.83, 0.000, 0.000, 0.000, 16:38:05.583, 1560433085583
32, 15872.04, 14453.00, -35945.25, 4635.89, 8455.96, 12395.38, 19750.13, 8435.12, 0.000, 0.000, 0.000, 16:38:05.584, 1560433085584
33, 15814.91, 14397.58, -36000.79, 4573.66, 8394.51, 12334.94, 19691.08, 8399.47, 0.000, 0.000, 0.000, 16:38:05.584, 1560433085584
34, 15798.06, 14401.47, -35987.20, 4602.25, 8419.16, 12359.82, 19649.91, 8314.92, 0.000, 0.000, 0.000, 16:38:05.584, 1560433085584
35, 15847.50, 14461.38, -35925.27, 4678.13, 8491.00, 12433.11, 19673.87, 8305.30, 0.000, 0.000, 0.000, 16:38:05.584, 1560433085584
36, 15891.24, 14503.42, -35900.50, 4697.58, 8508.04, 12454.53, 19723.25, 8376.72, 0.000, 0.000, 0.000, 16:38:05.585, 1560433085585
37, 15864.93, 14459.30, -35961.52, 4623.12, 8427.90, 12384.32, 19723.18, 8429.58, 0.000, 0.000, 0.000, 16:38:05.585, 1560433085585
38, 15832.99, 14421.21, -35998.46, 4587.83, 8388.39, 12350.19, 19702.21, 8393.33, 0.004, 0.052, -1.024, 16:38:05.585, 1560433085585
39, 15816.09, 14412.02, -36000.32, 4603.95, 8407.63, 12369.39, 19665.67, 8309.19, 0.000, 0.000, 0.000, 16:38:05.585, 1560433085585
40, 15858.76, 14462.07, -35936.04, 4690.71, 8484.66, 12447.80, 19701.65, 8299.38, 0.000, 0.000, 0.000, 16:38:05.586, 1560433085586
41, 15898.62, 14507.04, -35906.00, 4721.60, 8508.33, 12476.65, 19763.52, 8370.35, 0.000, 0.000, 0.000, 16:38:05.587, 1560433085587
42, 15871.17, 14455.45, -35968.05, 4648.96, 8430.32, 12403.47, 19752.24, 8418.99, 0.000, 0.000, 0.000, 16:38:05.587, 1560433085587
43, 15828.12, 14406.26, -36005.60, 4600.75, 8387.54, 12357.97, 19712.94, 8382.66, 0.000, 0.000, 0.000, 16:38:05.588, 1560433085588
44, 15790.86, 14393.32, -36006.63, 4609.47, 8394.60, 12363.00, 19662.90, 8299.85, 0.000, 0.000, 0.000, 16:38:05.591, 1560433085591
45, 15839.27, 14456.64, -35943.19, 4686.07, 8468.65, 12436.02, 19691.28, 8290.37, 0.000, 0.000, 0.000, 16:38:05.592, 1560433085592
46, 15907.13, 14517.30, -35898.46, 4723.44, 8506.92, 12471.56, 19751.92, 8360.74, 0.000, 0.000, 0.000, 16:38:05.594, 1560433085594
47, 15880.89, 14478.48, -35959.33, 4637.63, 8428.08, 12394.94, 19740.35, 8412.91, 0.000, 0.000, 0.000, 16:38:05.595, 1560433085595
48, 15836.97, 14430.46, -36000.77, 4593.37, 8381.86, 12352.89, 19704.83, 8381.81, 0.002, 0.046, -1.032, 16:38:05.596, 1560433085596
49, 15847.74, 14440.99, -35963.08, 4647.55, 8430.21, 12399.32, 19693.43, 8303.43, 0.000, 0.000, 0.000, 16:38:05.596, 1560433085596
50, 15878.12, 14491.22, -35916.95, 4701.85, 8487.87, 12452.92, 19712.05, 8293.44, 0.000, 0.000, 0.000, 16:38:05.597, 1560433085597
51, 15913.95, 14514.69, -35898.71, 4721.98, 8506.02, 12472.29, 19763.26, 8363.22, 0.000, 0.000, 0.000, 16:38:05.598, 1560433085598
52, 15856.35, 14445.37, -35982.08, 4628.91, 8412.06, 12382.93, 19742.58, 8420.06, 0.000, 0.000, 0.000, 16:38:05.598, 1560433085598
53, 15793.25, 14378.36, -36038.27, 4562.59, 8354.05, 12320.01, 19692.09, 8385.95, 0.000, 0.000, 0.000, 16:38:05.598, 1560433085598
54, 15796.56, 14381.80, -36014.14, 4600.19, 8398.80, 12352.49, 19672.66, 8307.92, 0.000, 0.000, 0.000, 16:38:05.599, 1560433085599
55, 15838.89, 14430.78, -35972.56, 4652.02, 8460.45, 12405.62, 19693.14, 8299.05, 0.000, 0.000, 0.000, 16:38:05.599, 1560433085599
56, 15862.12, 14470.97, -35943.97, 4674.06, 8486.93, 12429.96, 19757.02, 8380.47, 0.000, 0.000, 0.000, 16:38:05.599, 1560433085599
57, 15831.47, 14425.77, -35987.29, 4609.13, 8426.90, 12364.29, 19760.19, 8439.91, 0.000, 0.000, 0.000, 16:38:05.600, 1560433085600
58, 15766.23, 14335.42, -36056.29, 4530.92, 8357.41, 12288.56, 19687.75, 8404.55, 0.002, 0.048, -1.034, 16:38:05.600, 1560433085600
