%OpenBCI Raw EEG Data
%Number of channels = 8
%Sample Rate = 250.0 Hz
%First Column = SampleIndex
%Last Column = Timestamp 
%Other Columns = EEG data in microvolts followed by Accel Data (in G) interleaved with Aux Data
0, 15881.56, 27430.42, 39164.79, 28590.50, 26130.84, 21054.43, 13133.30, 17195.31, 0.002, 0.028, -0.520, 14:11:20.972, 1560510680972
1, 15783.62, 27465.55, 39259.83, 28512.76, 26312.67, 21015.58, 13321.35, 17096.09, 0.000, 0.000, 0.000, 14:11:20.972, 1560510680972
2, 15701.52, 27415.44, 39192.48, 28452.83, 26304.54, 20938.60, 13251.30, 17026.69, 0.000, 0.000, 0.000, 14:11:20.972, 1560510680972
3, 15827.02, 27350.46, 39021.14, 28549.41, 26029.86, 20970.16, 12929.77, 17140.84, 0.000, 0.000, 0.000, 14:11:20.972, 1560510680972
4, 15903.00, 27379.46, 39069.98, 28621.21, 26005.22, 21044.50, 12968.01, 17207.69, 0.000, 0.000, 0.000, 14:11:20.972, 1560510680972
5, 15873.56, 27415.67, 39157.82, 28592.53, 26120.90, 21052.79, 13124.21, 17181.12, 0.000, 0.000, 0.000, 14:11:20.972, 1560510680972
6, 15787.55, 27452.90, 39255.32, 28524.02, 26301.77, 21012.11, 13309.39, 17086.03, 0.000, 0.000, 0.000, 14:11:20.972, 1560510680972
7, 15701.81, 27420.58, 39181.31, 28452.79, 26292.24, 20929.03, 13240.61, 17014.42, 0.010, 0.038, -0.778, 14:11:20.972, 1560510680972
8, 15807.29, 27357.82, 39024.09, 28528.60, 26008.56, 20953.35, 12914.05, 17120.61, 0.000, 0.000, 0.000, 14:11:20.972, 1560510680972
9, 15911.69, 27395.95, 39065.21, 28603.59, 25979.83, 21030.44, 12947.47, 17189.85, 0.000, 0.000, 0.000, 14:11:20.972, 1560510680972
10, 15889.38, 27435.89, 39162.42, 28584.71, 26105.65, 21045.62, 13108.49, 17171.79, 0.000, 0.000, 0.000, 14:11:20.972, 1560510680972
11, 15787.93, 27444.79, 39254.69, 28501.47, 26276.49, 21001.36, 13288.67, 17070.65, 0.000, 0.000, 0.000, 14:11:20.972, 1560510680972
12, 15704.09, 27399.64, 39187.93, 28426.41, 26272.11, 20921.52, 13223.11, 17005.79, 0.000, 0.000, 0.000, 14:11:20.972, 1560510680972
13, 15797.92, 27329.01, 39005.83, 28521.52, 25996.29, 20952.46, 12895.91, 17117.26, 0.000, 0.000, 0.000, 14:11:20.972, 1560510680972
14, 15870.36, 27355.79, 39044.11, 28591.61, 25963.47, 21027.80, 12923.51, 17184.42, 0.000, 0.000, 0.000, 14:11:20.972, 1560510680972
15, 15854.94, 27401.83, 39137.32, 28570.42, 26081.65, 21041.55, 13087.86, 17168.06, 0.000, 0.000, 0.000, 14:11:20.972, 1560510680972
16, 15779.12, 27449.28, 39216.92, 28496.51, 26260.19, 21000.27, 13277.16, 17080.31, 0.010, 0.046, -0.908, 14:11:20.972, 1560510680972
17, 15707.26, 27410.59, 39159.32, 28439.26, 26264.80, 20925.01, 13222.44, 17015.06, 0.000, 0.000, 0.000, 14:11:20.972, 1560510680972
18, 15829.01, 27349.15, 39011.86, 28538.95, 25994.47, 20956.23, 12906.30, 17132.34, 0.000, 0.000, 0.000, 14:11:20.972, 1560510680972
19, 15916.03, 27394.77, 39068.70, 28616.92, 25966.71, 21034.51, 12938.78, 17208.34, 0.000, 0.000, 0.000, 14:11:20.973, 1560510680973
20, 15873.38, 27418.71, 39154.20, 28588.57, 26082.27, 21040.01, 13094.14, 17184.65, 0.000, 0.000, 0.000, 14:11:20.973, 1560510680973
21, 15779.57, 27436.63, 39255.18, 28507.84, 26255.65, 20997.38, 13280.29, 17088.02, 0.000, 0.000, 0.000, 14:11:20.973, 1560510680973
22, 15702.39, 27400.02, 39181.87, 28443.00, 26268.46, 20920.18, 13230.85, 17020.92, 0.000, 0.000, 0.000, 14:11:20.973, 1560510680973
23, 15819.42, 27352.52, 39013.49, 28533.32, 25991.46, 20953.22, 12906.61, 17136.21, 0.000, 0.000, 0.000, 14:11:20.973, 1560510680973
24, 15917.97, 27392.20, 39086.16, 28605.67, 25966.67, 21030.62, 12937.19, 17210.84, 0.000, 0.000, 0.000, 14:11:20.973, 1560510680973
25, 15896.72, 27440.05, 39145.86, 28580.93, 26082.50, 21035.72, 13094.90, 17183.02, 0.000, 0.000, 0.000, 14:11:20.973, 1560510680973
26, 15809.81, 27473.91, 39246.33, 28514.99, 26255.19, 20996.38, 13282.05, 17088.47, 0.008, 0.052, -0.972, 14:11:20.973, 1560510680973
27, 15721.12, 27424.03, 39190.43, 28448.65, 26263.84, 20926.08, 13232.03, 17016.45, 0.000, 0.000, 0.000, 14:11:20.973, 1560510680973
28, 15811.89, 27344.41, 38998.18, 28529.10, 25985.94, 20951.43, 12903.97, 17124.77, 0.000, 0.000, 0.000, 14:11:20.973, 1560510680973
29, 15891.11, 27361.66, 39047.00, 28599.48, 25947.00, 21027.20, 12926.24, 17196.58, 0.000, 0.000, 0.000, 14:11:20.973, 1560510680973
30, 15878.54, 27413.72, 39139.49, 28587.84, 26079.66, 21048.32, 13096.51, 17183.89, 0.000, 0.000, 0.000, 14:11:20.973, 1560510680973
31, 15795.55, 27443.05, 39232.07, 28515.68, 26261.31, 21013.90, 13286.03, 17090.88, 0.000, 0.000, 0.000, 14:11:20.973, 1560510680973
32, 15708.83, 27398.01, 39190.18, 28437.59, 26268.17, 20929.75, 13228.86, 17011.51, 0.000, 0.000, 0.000, 14:11:20.973, 1560510680973
33, 15814.66, 27347.22, 39015.66, 28529.68, 25992.02, 20955.01, 12900.06, 17122.42, 0.000, 0.000, 0.000, 14:11:20.974, 1560510680974
34, 15909.43, 27390.36, 39056.39, 28611.15, 25952.77, 21034.71, 12928.11, 17200.07, 0.000, 0.000, 0.000, 14:11:20.974, 1560510680974
35, 15897.48, 27439.67, 39168.93, 28575.43, 26075.61, 21050.29, 13090.81, 17180.91, 0.000, 0.000, 0.000, 14:11:20.974, 1560510680974
36, 15811.24, 27468.79, 39255.83, 28496.17, 26257.17, 21012.81, 13276.60, 17087.97, 0.008, 0.048, -1.008, 14:11:20.974, 1560510680974
37, 15724.09, 27410.77, 39179.43, 28430.46, 26263.34, 20926.89, 13227.67, 17011.11, 0.000, 0.000, 0.000, 14:11:20.974, 1560510680974
38, 15824.68, 27336.88, 39003.86, 28517.49, 25990.96, 20949.35, 12895.62, 17122.91, 0.000, 0.000, 0.000, 14:11:20.974, 1560510680974
39, 15897.12, 27361.87, 39042.26, 28603.06, 25950.24, 21029.59, 12913.27, 17201.14, 0.000, 0.000, 0.000, 14:11:20.974, 1560510680974
40, 15879.24, 27405.94, 39140.14, 28585.11, 26073.67, 21044.90, 13078.54, 17181.58, 0.000, 0.000, 0.000, 14:11:20.974, 1560510680974
41, 15809.39, 27447.03, 39249.08, 28518.12, 26252.57, 21013.97, 13274.79, 17098.21, 0.000, 0.000, 0.000, 14:11:20.974, 1560510680974
42, 15719.71, 27409.54, 39198.12, 28438.71, 26262.81, 20928.29, 13233.84, 17023.22, 0.000, 0.000, 0.000, 14:11:20.974, 1560510680974
43, 15808.34, 27351.74, 39001.25, 28513.18, 25983.19, 20949.35, 12901.38, 17130.11, 0.000, 0.000, 0.000, 14:11:20.974, 1560510680974
44, 15908.09, 27397.61, 39041.16, 28600.31, 25943.80, 21036.23, 12926.26, 17215.98, 0.000, 0.000, 0.000, 14:11:20.974, 1560510680974
45, 15911.83, 27445.19, 39149.55, 28603.91, 26069.46, 21054.18, 13094.57, 17202.08, 0.000, 0.000, 0.000, 14:11:20.974, 1560510680974
46, 15835.18, 27467.07, 39236.07, 28524.40, 26249.46, 21018.04, 13280.74, 17111.09, 0.008, 0.050, -1.020, 14:11:20.974, 1560510680974
47, 15739.32, 27419.00, 39193.76, 28445.25, 26269.31, 20941.48, 13246.40, 17039.65, 0.000, 0.000, 0.000, 14:11:20.974, 1560510680974
48, 15825.79, 27356.48, 39028.63, 28536.20, 25996.53, 20965.62, 12913.70, 17147.34, 0.000, 0.000, 0.000, 14:11:20.974, 1560510680974
49, 15936.15, 27396.67, 39069.51, 28628.07, 25962.69, 21060.35, 12938.64, 17237.44, 0.000, 0.000, 0.000, 14:11:20.974, 1560510680974
50, 15900.36, 27421.52, 39148.66, 28598.18, 26074.56, 21063.08, 13091.48, 17203.04, 0.000, 0.000, 0.000, 14:11:20.975, 1560510680975
51, 15800.74, 27443.22, 39238.53, 28525.43, 26238.94, 21022.44, 13269.65, 17107.64, 0.000, 0.000, 0.000, 14:11:20.975, 1560510680975
52, 15721.52, 27411.91, 39182.32, 28454.31, 26264.60, 20945.82, 13240.37, 17033.01, 0.000, 0.000, 0.000, 14:11:20.975, 1560510680975
53, 15832.88, 27356.14, 39006.54, 28529.05, 25983.99, 20965.76, 12911.84, 17138.13, 0.000, 0.000, 0.000, 14:11:20.975, 1560510680975
54, 15937.73, 27401.58, 39057.46, 28620.60, 25944.65, 21053.17, 12929.95, 17225.10, 0.000, 0.000, 0.000, 14:11:20.975, 1560510680975
55, 15913.46, 27435.13, 39153.62, 28607.91, 26063.27, 21064.26, 13092.89, 17205.39, 0.000, 0.000, 0.000, 14:11:20.975, 1560510680975
56, 15827.40, 27463.68, 39240.97, 28539.55, 26238.00, 21029.39, 13277.09, 17113.12, 0.008, 0.054, -1.024, 14:11:20.975, 1560510680975
57, 15743.58, 27431.78, 39213.30, 28460.50, 26259.14, 20949.46, 13245.24, 17033.24, 0.000, 0.000, 0.000, 14:11:20.975, 1560510680975
58, 15830.42, 27361.22, 39011.59, 28531.44, 25972.23, 20951.21, 12896.26, 17121.79, 0.000, 0.000, 0.000, 14:11:20.975, 1560510680975
59, 15931.27, 27394.12, 39044.27, 28598.56, 25923.80, 21038.98, 12906.81, 17206.80, 0.000, 0.000, 0.000, 14:11:20.975, 1560510680975
60, 15906.33, 27413.38, 39135.07, 28591.61, 26047.11, 21064.37, 13075.73, 17198.08, 0.000, 0.000, 0.000, 14:11:20.975, 1560510680975
61, 15809.57, 27442.76, 39235.20, 28533.30, 26230.98, 21037.15, 13269.67, 17120.83, 0.000, 0.000, 0.000, 14:11:20.976, 1560510680976
62, 15725.19, 27428.58, 39202.48, 28461.53, 26262.99, 20961.53, 13246.25, 17048.77, 0.000, 0.000, 0.000, 14:11:20.976, 1560510680976
63, 15837.17, 27366.60, 39036.94, 28549.28, 25992.55, 20986.25, 12917.25, 17158.58, 0.000, 0.000, 0.000, 14:11:20.976, 1560510680976
64, 15947.34, 27404.78, 39065.28, 28638.15, 25930.73, 21073.60, 12927.82, 17242.98, 0.000, 0.000, 0.000, 14:11:20.976, 1560510680976
65, 15922.33, 27445.73, 39130.30, 28624.94, 26043.16, 21087.48, 13086.16, 17220.37, 0.000, 0.000, 0.000, 14:11:20.976, 1560510680976
66, 15833.57, 27489.47, 39228.41, 28562.76, 26226.29, 21054.16, 13274.19, 17135.54, 0.008, 0.050, -1.032, 14:11:20.976, 1560510680976
67, 15745.15, 27469.76, 39203.95, 28489.91, 26262.76, 20979.82, 13253.11, 17060.88, 0.000, 0.000, 0.000, 14:11:20.976, 1560510680976
68, 15851.03, 27410.26, 39013.38, 28572.81, 25990.83, 21001.99, 12926.35, 17171.19, 0.000, 0.000, 0.000, 14:11:20.976, 1560510680976
69, 15955.30, 27447.67, 39038.68, 28667.83, 25933.41, 21092.29, 12934.48, 17265.98, 0.000, 0.000, 0.000, 14:11:20.976, 1560510680976
70, 15946.25, 27495.51, 39143.96, 28668.88, 26061.57, 21121.62, 13105.83, 17258.88, 0.000, 0.000, 0.000, 14:11:20.976, 1560510680976
71, 15856.13, 27519.91, 39231.71, 28583.95, 26235.20, 21075.57, 13284.45, 17158.18, 0.000, 0.000, 0.000, 14:11:20.976, 1560510680976
72, 15760.30, 27486.99, 39190.95, 28509.04, 26264.26, 20993.85, 13263.48, 17074.12, 0.000, 0.000, 0.000, 14:11:20.976, 1560510680976
73, 15859.08, 27434.15, 39010.48, 28601.16, 25989.94, 21018.80, 12939.94, 17181.47, 0.000, 0.000, 0.000, 14:11:20.976, 1560510680976
74, 15974.52, 27477.58, 39060.25, 28679.39, 25931.33, 21099.73, 12935.04, 17261.89, 0.000, 0.000, 0.000, 14:11:20.976, 1560510680976
75, 15964.31, 27505.36, 39165.20, 28661.06, 26051.65, 21111.06, 13094.01, 17234.60, 0.000, 0.000, 0.000, 14:11:20.977, 1560510680977
76, 15866.81, 27521.57, 39248.97, 28593.89, 26222.35, 21076.82, 13287.28, 17152.77, 0.010, 0.052, -1.034, 14:11:20.977, 1560510680977
77, 15757.42, 27485.36, 39211.75, 28525.70, 26263.21, 21008.72, 13278.77, 17081.89, 0.000, 0.000, 0.000, 14:11:20.977, 1560510680977
78, 15850.29, 27425.32, 39018.68, 28607.51, 25987.23, 21029.95, 12946.93, 17183.95, 0.000, 0.000, 0.000, 14:11:20.977, 1560510680977
79, 15939.99, 27444.14, 39029.03, 28693.13, 25920.85, 21108.94, 12944.25, 17267.84, 0.000, 0.000, 0.000, 14:11:20.977, 1560510680977
80, 15923.29, 27484.91, 39123.33, 28679.77, 26037.30, 21127.18, 13105.43, 17242.38, 0.000, 0.000, 0.000, 14:11:20.977, 1560510680977
81, 15860.53, 27551.34, 39231.45, 28627.71, 26218.39, 21104.40, 13298.68, 17166.92, 0.000, 0.000, 0.000, 14:11:20.977, 1560510680977
82, 15758.11, 27514.10, 39184.08, 28539.96, 26250.87, 21017.41, 13276.96, 17077.00, 0.000, 0.000, 0.000, 14:11:20.977, 1560510680977
83, 15855.17, 27440.32, 39013.67, 28603.86, 25971.97, 21031.38, 12944.45, 17176.76, 0.000, 0.000, 0.000, 14:11:20.977, 1560510680977
84, 15964.02, 27484.73, 39040.32, 28692.02, 25911.91, 21116.54, 12929.32, 17261.78, 0.000, 0.000, 0.000, 14:11:20.977, 1560510680977
85, 15953.31, 27517.46, 39131.13, 28685.94, 26033.43, 21129.01, 13088.17, 17240.75, 0.000, 0.000, 0.000, 14:11:20.977, 1560510680977
86, 15873.60, 27523.91, 39246.51, 28621.59, 26209.72, 21097.14, 13277.49, 17158.83, 0.010, 0.046, -1.040, 14:11:20.977, 1560510680977
87, 15776.04, 27490.61, 39214.32, 28539.24, 26259.83, 21022.98, 13283.84, 17086.79, 0.000, 0.000, 0.000, 14:11:20.977, 1560510680977
88, 15842.04, 27414.88, 39020.96, 28603.71, 25982.27, 21026.62, 12945.50, 17178.10, 0.000, 0.000, 0.000, 14:11:20.977, 1560510680977
89, 15944.79, 27444.01, 39038.64, 28685.96, 25912.40, 21107.94, 12927.26, 17263.37, 0.000, 0.000, 0.000, 14:11:20.977, 1560510680977
90, 15942.47, 27497.38, 39131.91, 28681.65, 26038.20, 21128.01, 13097.83, 17255.05, 0.000, 0.000, 0.000, 14:11:20.978, 1560510680978
91, 15883.33, 27540.28, 39224.54, 28615.22, 26209.83, 21099.33, 13282.14, 17172.91, 0.000, 0.000, 0.000, 14:11:20.978, 1560510680978
92, 15785.79, 27510.12, 39189.76, 28535.94, 26255.63, 21023.47, 13273.27, 17088.20, 0.000, 0.000, 0.000, 14:11:20.978, 1560510680978
93, 15862.65, 27445.10, 39017.14, 28608.40, 25981.09, 21034.04, 12943.25, 17188.11, 0.000, 0.000, 0.000, 14:11:20.979, 1560510680979
94, 15988.11, 27495.91, 39056.34, 28709.07, 25921.23, 21128.19, 12945.62, 17294.39, 0.000, 0.000, 0.000, 14:11:20.979, 1560510680979
95, 15981.47, 27529.90, 39159.32, 28692.31, 26038.37, 21147.79, 13110.88, 17277.63, 0.000, 0.000, 0.000, 14:11:20.979, 1560510680979
96, 15887.08, 27548.59, 39270.70, 28619.24, 26194.79, 21102.15, 13280.91, 17179.62, 0.010, 0.050, -1.040, 14:11:20.979, 1560510680979
97, 15794.52, 27523.51, 39236.79, 28535.26, 26253.15, 21025.57, 13284.92, 17095.24, 0.000, 0.000, 0.000, 14:11:20.979, 1560510680979
98, 15874.68, 27445.35, 39023.30, 28610.97, 25987.39, 21036.63, 12955.23, 17188.80, 0.000, 0.000, 0.000, 14:11:20.979, 1560510680979
99, 15974.48, 27462.31, 39042.91, 28704.42, 25912.94, 21117.99, 12932.00, 17278.23, 0.000, 0.000, 0.000, 14:11:20.979, 1560510680979
100, 15963.91, 27501.00, 39137.59, 28683.46, 26026.33, 21133.71, 13091.95, 17260.66, 0.000, 0.000, 0.000, 14:11:20.979, 1560510680979
101, 15876.80, 27539.43, 39219.44, 28619.71, 26194.43, 21103.15, 13269.81, 17172.64, 0.000, 0.000, 0.000, 14:11:20.979, 1560510680979
102, 15774.65, 27513.54, 39185.89, 28539.98, 26238.40, 21026.15, 13269.69, 17083.30, 0.000, 0.000, 0.000, 14:11:20.979, 1560510680979
103, 15869.56, 27452.21, 39017.58, 28612.62, 25973.26, 21041.82, 12939.02, 17179.10, 0.000, 0.000, 0.000, 14:11:20.979, 1560510680979
104, 15982.64, 27475.39, 39043.33, 28700.24, 25899.14, 21125.91, 12917.50, 17272.53, 0.000, 0.000, 0.000, 14:11:20.980, 1560510680980
105, 15973.54, 27507.75, 39132.85, 28688.33, 26016.92, 21141.08, 13076.55, 17252.55, 0.000, 0.000, 0.000, 14:11:20.980, 1560510680980
106, 15901.72, 27545.82, 39230.53, 28626.86, 26193.83, 21110.13, 13265.16, 17172.08, 0.008, 0.048, -1.042, 14:11:20.980, 1560510680980
107, 15807.73, 27533.06, 39208.56, 28544.96, 26240.05, 21029.46, 13270.30, 17081.85, 0.000, 0.000, 0.000, 14:11:20.980, 1560510680980
108, 15894.33, 27453.37, 39030.70, 28608.09, 25965.10, 21030.46, 12939.56, 17168.53, 0.000, 0.000, 0.000, 14:11:20.980, 1560510680980
109, 16006.73, 27471.77, 39036.94, 28701.11, 25892.53, 21118.26, 12915.22, 17265.96, 0.000, 0.000, 0.000, 14:11:20.980, 1560510680980
110, 15995.58, 27522.37, 39145.73, 28697.00, 26020.18, 21149.38, 13088.15, 17263.66, 0.000, 0.000, 0.000, 14:11:20.980, 1560510680980
111, 15915.36, 27547.72, 39264.04, 28637.37, 26186.72, 21118.53, 13272.26, 17186.39, 0.000, 0.000, 0.000, 14:11:20.980, 1560510680980
112, 15812.38, 27521.19, 39229.88, 28564.84, 26243.25, 21041.24, 13280.47, 17097.14, 0.000, 0.000, 0.000, 14:11:20.980, 1560510680980
113, 15889.14, 27457.93, 39040.05, 28626.64, 25975.88, 21048.73, 12952.86, 17185.79, 0.000, 0.000, 0.000, 14:11:20.980, 1560510680980
114, 16003.42, 27491.44, 39058.55, 28731.58, 25900.93, 21139.23, 12932.96, 17288.20, 0.000, 0.000, 0.000, 14:11:20.980, 1560510680980
115, 16015.83, 27540.88, 39173.24, 28736.77, 26023.29, 21168.26, 13102.10, 17285.54, 0.006, 0.050, -1.044, 14:11:20.980, 1560510680980
116, 15932.43, 27573.04, 39268.91, 28657.35, 26180.73, 21131.41, 13266.05, 17189.63, 0.000, 0.000, 0.000, 14:11:20.980, 1560510680980
117, 15823.09, 27541.71, 39229.37, 28566.96, 26237.35, 21051.81, 13271.30, 17097.41, 0.000, 0.000, 0.000, 14:11:20.980, 1560510680980
118, 15912.47, 27473.94, 39081.11, 28639.40, 25978.56, 21068.53, 12959.72, 17206.21, 0.000, 0.000, 0.000, 14:11:20.980, 1560510680980
119, 16023.94, 27497.07, 39079.45, 28723.96, 25893.22, 21148.95, 12927.51, 17299.60, 0.000, 0.000, 0.000, 14:11:20.980, 1560510680980
120, 16008.56, 27534.62, 39150.62, 28712.18, 26008.80, 21166.05, 13087.35, 17282.12, 0.000, 0.000, 0.000, 14:11:21.451, 1560510681451
121, 15927.14, 27559.23, 39252.86, 28646.20, 26171.61, 21129.06, 13260.15, 17199.76, 0.000, 0.000, 0.000, 14:11:21.451, 1560510681451
122, 15824.57, 27540.14, 39235.76, 28549.75, 26233.04, 21045.26, 13272.67, 17109.57, 0.000, 0.000, 0.000, 14:11:21.451, 1560510681451
123, 15902.04, 27470.09, 39040.65, 28609.14, 25967.72, 21044.28, 12941.17, 17197.34, 0.000, 0.000, 0.000, 14:11:21.451, 1560510681451
124, 16012.70, 27482.92, 39046.53, 28694.79, 25872.72, 21118.46, 12900.29, 17287.22, 0.000, 0.000, 0.000, 14:11:21.451, 1560510681451
125, 15997.25, 27520.79, 39142.95, 28684.91, 25989.45, 21134.04, 13064.84, 17274.41, 0.006, 0.050, -1.042, 14:11:21.451, 1560510681451
126, 15922.04, 27560.08, 39236.09, 28636.85, 26162.34, 21109.46, 13253.56, 17198.82, 0.000, 0.000, 0.000, 14:11:21.451, 1560510681451
127, 15816.54, 27523.85, 39213.25, 28538.77, 26220.34, 21025.30, 13273.05, 17105.14, 0.000, 0.000, 0.000, 14:11:21.451, 1560510681451
128, 15877.07, 27432.45, 39008.42, 28593.00, 25947.96, 21018.66, 12936.43, 17184.11, 0.000, 0.000, 0.000, 14:11:21.452, 1560510681452
129, 15991.58, 27448.32, 39008.66, 28686.92, 25855.51, 21096.71, 12895.12, 17277.58, 0.000, 0.000, 0.000, 14:11:21.452, 1560510681452
130, 16003.20, 27500.47, 39112.45, 28698.01, 25981.13, 21132.66, 13071.88, 17280.27, 0.000, 0.000, 0.000, 14:11:21.452, 1560510681452
131, 15929.71, 27540.70, 39245.80, 28638.69, 26149.37, 21105.95, 13253.20, 17200.63, 0.000, 0.000, 0.000, 14:11:21.452, 1560510681452
132, 15814.26, 27518.24, 39230.28, 28535.11, 26208.89, 21023.85, 13266.01, 17100.43, 0.000, 0.000, 0.000, 14:11:21.452, 1560510681452
133, 15894.01, 27455.14, 39014.88, 28603.30, 25950.11, 21035.56, 12938.04, 17185.45, 0.000, 0.000, 0.000, 14:11:21.452, 1560510681452
134, 16024.19, 27486.92, 39028.94, 28723.85, 25880.62, 21140.68, 12904.06, 17292.02, 0.000, 0.000, 0.000, 14:11:21.452, 1560510681452
135, 16026.18, 27527.33, 39150.33, 28726.71, 26006.68, 21172.09, 13078.63, 17287.06, 0.008, 0.052, -1.036, 14:11:21.452, 1560510681452
136, 15948.71, 27565.76, 39256.55, 28666.07, 26172.44, 21146.29, 13256.35, 17205.39, 0.000, 0.000, 0.000, 14:11:21.452, 1560510681452
137, 15839.76, 27550.11, 39239.78, 28578.40, 26248.52, 21073.22, 13277.58, 17113.34, 0.000, 0.000, 0.000, 14:11:21.452, 1560510681452
138, 15927.99, 27483.21, 39060.72, 28646.02, 25989.85, 21081.03, 12952.03, 17207.78, 0.000, 0.000, 0.000, 14:11:21.452, 1560510681452
139, 16032.08, 27494.90, 39064.19, 28731.06, 25894.52, 21157.31, 12903.77, 17296.74, 0.000, 0.000, 0.000, 14:11:21.452, 1560510681452
140, 16014.76, 27533.39, 39158.69, 28721.74, 26005.56, 21177.61, 13065.02, 17280.29, 0.000, 0.000, 0.000, 14:11:21.452, 1560510681452
141, 15945.04, 27565.51, 39242.22, 28666.07, 26174.88, 21149.60, 13243.01, 17200.70, 0.000, 0.000, 0.000, 14:11:21.452, 1560510681452
142, 15844.73, 27547.43, 39229.16, 28582.22, 26246.13, 21063.10, 13265.67, 17101.01, 0.000, 0.000, 0.000, 14:11:21.452, 1560510681452
143, 15932.35, 27488.78, 39064.07, 28643.00, 25984.01, 21065.71, 12942.67, 17185.83, 0.000, 0.000, 0.000, 14:11:21.452, 1560510681452
144, 16031.52, 27502.88, 39068.01, 28735.87, 25878.25, 21145.62, 12882.49, 17273.83, 0.000, 0.000, 0.000, 14:11:21.452, 1560510681452
145, 16020.14, 27542.02, 39159.70, 28730.84, 25994.16, 21171.59, 13053.55, 17273.14, 0.006, 0.052, -1.036, 14:11:21.452, 1560510681452
146, 15956.55, 27591.30, 39256.43, 28675.43, 26173.31, 21152.55, 13250.58, 17216.88, 0.000, 0.000, 0.000, 14:11:21.453, 1560510681453
147, 15854.76, 27569.11, 39259.74, 28590.21, 26243.47, 21070.18, 13280.76, 17123.89, 0.000, 0.000, 0.000, 14:11:21.453, 1560510681453
148, 15931.99, 27487.37, 39060.63, 28637.59, 25979.63, 21067.12, 12954.80, 17209.77, 0.000, 0.000, 0.000, 14:11:21.453, 1560510681453
149, 16048.98, 27504.98, 39059.29, 28734.04, 25881.29, 21149.87, 12897.81, 17308.54, 0.000, 0.000, 0.000, 14:11:21.453, 1560510681453
150, 16033.51, 27546.69, 39160.66, 28725.99, 25996.96, 21174.79, 13062.67, 17296.09, 0.000, 0.000, 0.000, 14:11:21.453, 1560510681453
151, 15954.29, 27575.73, 39240.65, 28655.03, 26157.93, 21141.24, 13232.10, 17218.76, 0.000, 0.000, 0.000, 14:11:21.453, 1560510681453
152, 15851.28, 27555.70, 39242.33, 28572.35, 26233.21, 21065.56, 13267.91, 17129.66, 0.000, 0.000, 0.000, 14:11:21.453, 1560510681453
153, 15926.80, 27491.50, 39070.13, 28635.04, 25978.20, 21065.29, 12947.63, 17214.20, 0.000, 0.000, 0.000, 14:11:21.453, 1560510681453
154, 16050.12, 27516.18, 39063.18, 28737.53, 25883.77, 21153.60, 12898.27, 17319.45, 0.000, 0.000, 0.000, 14:11:21.453, 1560510681453
155, 16030.33, 27541.30, 39152.43, 28727.18, 25992.08, 21173.38, 13057.69, 17301.66, 0.008, 0.048, -1.036, 14:11:21.453, 1560510681453
156, 15953.65, 27573.96, 39249.35, 28667.72, 26152.50, 21146.20, 13236.12, 17224.46, 0.000, 0.000, 0.000, 14:11:21.453, 1560510681453
157, 15859.57, 27565.71, 39265.62, 28595.10, 26243.32, 21072.20, 13283.73, 17136.93, 0.000, 0.000, 0.000, 14:11:21.453, 1560510681453
158, 15933.06, 27499.64, 39068.37, 28640.96, 25985.64, 21067.03, 12951.58, 17213.75, 0.000, 0.000, 0.000, 14:11:21.453, 1560510681453
159, 16045.29, 27519.11, 39061.97, 28731.78, 25879.61, 21151.07, 12890.29, 17313.08, 0.000, 0.000, 0.000, 14:11:21.453, 1560510681453
160, 16044.33, 27553.31, 39163.07, 28727.09, 25999.68, 21178.75, 13070.09, 17310.76, 0.000, 0.000, 0.000, 14:11:21.453, 1560510681453
161, 15982.59, 27590.12, 39260.26, 28669.24, 26173.51, 21152.19, 13250.94, 17235.27, 0.000, 0.000, 0.000, 14:11:21.453, 1560510681453
162, 15873.49, 27565.58, 39264.05, 28577.17, 26252.75, 21068.06, 13282.50, 17132.12, 0.000, 0.000, 0.000, 14:11:21.453, 1560510681453
163, 15922.60, 27491.15, 39078.13, 28632.63, 25987.79, 21063.77, 12952.23, 17211.87, 0.000, 0.000, 0.000, 14:11:21.454, 1560510681454
164, 16040.37, 27507.35, 39061.06, 28728.12, 25877.26, 21149.85, 12890.74, 17314.09, 0.000, 0.000, 0.000, 14:11:21.454, 1560510681454
165, 16029.42, 27536.39, 39156.88, 28713.79, 25984.04, 21171.33, 13053.11, 17297.43, 0.010, 0.048, -1.042, 14:11:21.454, 1560510681454
166, 15958.56, 27574.47, 39267.52, 28665.96, 26156.99, 21157.13, 13239.63, 17230.54, 0.000, 0.000, 0.000, 14:11:21.454, 1560510681454
167, 15847.25, 27549.93, 39253.75, 28573.44, 26238.00, 21068.66, 13275.77, 17119.29, 0.000, 0.000, 0.000, 14:11:21.454, 1560510681454
168, 15914.42, 27467.99, 39067.18, 28617.16, 25969.11, 21054.87, 12939.09, 17195.15, 0.000, 0.000, 0.000, 14:11:21.454, 1560510681454
169, 16040.01, 27487.68, 39051.83, 28712.31, 25859.58, 21136.57, 12870.33, 17300.67, 0.000, 0.000, 0.000, 14:11:21.454, 1560510681454
170, 16031.59, 27527.04, 39144.00, 28703.95, 25966.04, 21162.14, 13036.74, 17286.66, 0.000, 0.000, 0.000, 14:11:21.454, 1560510681454
171, 15958.72, 27563.03, 39240.01, 28663.81, 26126.13, 21146.11, 13217.79, 17217.82, 0.000, 0.000, 0.000, 14:11:21.454, 1560510681454
172, 15854.49, 27557.58, 39238.57, 28585.76, 26219.53, 21067.28, 13266.74, 17117.81, 0.000, 0.000, 0.000, 14:11:21.455, 1560510681455
173, 15935.21, 27485.56, 39047.85, 28632.11, 25967.65, 21064.91, 12940.50, 17200.74, 0.000, 0.000, 0.000, 14:11:21.455, 1560510681455
174, 16047.72, 27496.96, 39039.29, 28722.06, 25856.61, 21146.63, 12869.98, 17304.68, 0.000, 0.000, 0.000, 14:11:21.455, 1560510681455
175, 16040.17, 27539.20, 39152.03, 28720.13, 25967.29, 21168.93, 13039.83, 17297.41, 0.008, 0.056, -1.046, 14:11:21.455, 1560510681455
176, 15986.44, 27575.59, 39255.94, 28668.53, 26130.91, 21149.33, 13219.63, 17227.45, 0.000, 0.000, 0.000, 14:11:21.455, 1560510681455
177, 15858.20, 27558.16, 39258.78, 28567.61, 26210.64, 21061.47, 13261.60, 17120.21, 0.000, 0.000, 0.000, 14:11:21.455, 1560510681455
178, 15915.18, 27489.49, 39055.96, 28614.93, 25943.69, 21045.29, 12933.57, 17195.80, 0.000, 0.000, 0.000, 14:11:21.455, 1560510681455
179, 16049.36, 27517.34, 39051.27, 28727.53, 25832.11, 21136.37, 12874.20, 17315.00, 0.000, 0.000, 0.000, 14:11:21.455, 1560510681455
180, 16047.28, 27557.17, 39162.89, 28726.15, 25950.11, 21170.25, 13049.93, 17310.29, 0.000, 0.000, 0.000, 14:11:21.455, 1560510681455
181, 15974.59, 27569.40, 39243.80, 28656.01, 26105.32, 21135.61, 13215.18, 17225.44, 0.000, 0.000, 0.000, 14:11:21.455, 1560510681455
182, 15860.31, 27557.67, 39240.27, 28574.11, 26203.37, 21061.91, 13274.54, 17132.50, 0.000, 0.000, 0.000, 14:11:21.455, 1560510681455
183, 15921.33, 27492.40, 39057.59, 28622.39, 25937.19, 21053.98, 12947.40, 17205.90, 0.000, 0.000, 0.000, 14:11:21.455, 1560510681455
184, 16046.38, 27503.62, 39036.47, 28718.53, 25814.79, 21135.92, 12860.30, 17302.26, 0.000, 0.000, 0.000, 14:11:21.455, 1560510681455
185, 16054.23, 27546.06, 39128.89, 28720.96, 25929.63, 21166.92, 13027.89, 17294.71, 0.004, 0.054, -1.042, 14:11:21.455, 1560510681455
186, 15986.68, 27572.57, 39222.77, 28660.77, 26087.48, 21140.14, 13209.63, 17222.73, 0.000, 0.000, 0.000, 14:11:21.455, 1560510681455
187, 15864.78, 27544.25, 39241.75, 28551.83, 26174.34, 21050.11, 13248.59, 17105.34, 0.000, 0.000, 0.000, 14:11:21.456, 1560510681456
188, 15932.39, 27486.70, 39064.19, 28609.85, 25929.07, 21053.24, 12933.57, 17190.19, 0.000, 0.000, 0.000, 14:11:21.456, 1560510681456
189, 16058.68, 27507.93, 39033.10, 28717.97, 25820.09, 21146.78, 12859.61, 17303.80, 0.000, 0.000, 0.000, 14:11:21.456, 1560510681456
190, 16043.19, 27539.83, 39112.51, 28705.21, 25924.36, 21163.84, 13016.92, 17286.62, 0.000, 0.000, 0.000, 14:11:21.456, 1560510681456
191, 15974.68, 27575.17, 39209.68, 28657.37, 26086.50, 21144.19, 13197.27, 17221.15, 0.000, 0.000, 0.000, 14:11:21.457, 1560510681457
192, 15860.53, 27568.10, 39239.22, 28570.13, 26189.96, 21071.08, 13261.56, 17119.22, 0.000, 0.000, 0.000, 14:11:21.457, 1560510681457
193, 15926.58, 27494.97, 39052.30, 28621.05, 25939.76, 21060.51, 12941.79, 17195.06, 0.000, 0.000, 0.000, 14:11:21.458, 1560510681458
194, 16051.93, 27495.44, 39026.10, 28724.16, 25815.55, 21154.74, 12862.89, 17315.81, 0.000, 0.000, 0.000, 14:11:21.458, 1560510681458
195, 16057.05, 27557.71, 39136.27, 28751.14, 25945.84, 21205.12, 13041.19, 17327.72, -0.002, 0.050, -1.036, 14:11:21.458, 1560510681458
196, 15988.87, 27595.89, 39237.35, 28692.53, 26111.89, 21182.50, 13214.22, 17253.40, 0.000, 0.000, 0.000, 14:11:21.458, 1560510681458
197, 15895.91, 27592.00, 39255.65, 28598.32, 26219.73, 21106.88, 13281.70, 17154.43, 0.000, 0.000, 0.000, 14:11:21.458, 1560510681458
198, 15961.42, 27512.11, 39071.05, 28643.18, 25965.66, 21095.11, 12957.19, 17224.54, 0.000, 0.000, 0.000, 14:11:21.458, 1560510681458
199, 16070.97, 27513.28, 39047.98, 28740.88, 25837.36, 21175.24, 12868.50, 17329.84, 0.000, 0.000, 0.000, 14:11:21.458, 1560510681458
200, 16064.22, 27557.13, 39142.91, 28742.04, 25950.80, 21201.54, 13037.93, 17324.46, 0.000, 0.000, 0.000, 14:11:21.458, 1560510681458
201, 16008.32, 27601.74, 39247.74, 28702.52, 26115.35, 21185.72, 13216.30, 17256.87, 0.000, 0.000, 0.000, 14:11:21.458, 1560510681458
202, 15907.20, 27597.90, 39255.03, 28603.21, 26218.51, 21103.11, 13278.50, 17152.91, 0.000, 0.000, 0.000, 14:11:21.458, 1560510681458
203, 15965.58, 27518.82, 39074.47, 28641.88, 25963.74, 21095.49, 12954.49, 17222.89, 0.000, 0.000, 0.000, 14:11:21.458, 1560510681458
204, 16076.22, 27516.03, 39060.14, 28728.90, 25825.56, 21166.50, 12856.37, 17325.64, 0.000, 0.000, 0.000, 14:11:21.458, 1560510681458
205, 16067.42, 27562.90, 39136.70, 28730.89, 25939.27, 21200.52, 13032.83, 17329.49, 0.006, 0.052, -1.036, 14:11:21.458, 1560510681458
206, 15997.68, 27596.49, 39240.99, 28694.19, 26106.63, 21186.68, 13215.42, 17270.83, 0.000, 0.000, 0.000, 14:11:21.459, 1560510681459
207, 15896.74, 27590.79, 39269.24, 28607.73, 26208.58, 21108.16, 13283.33, 17172.49, 0.000, 0.000, 0.000, 14:11:21.459, 1560510681459
208, 15965.83, 27514.53, 39069.77, 28633.86, 25946.71, 21085.83, 12956.03, 17236.93, 0.000, 0.000, 0.000, 14:11:21.459, 1560510681459
209, 16078.46, 27520.76, 39033.45, 28731.33, 25811.64, 21166.47, 12857.50, 17342.63, 0.000, 0.000, 0.000, 14:11:21.459, 1560510681459
210, 16065.27, 27563.39, 39153.68, 28742.91, 25927.13, 21201.19, 13032.18, 17343.12, 0.000, 0.000, 0.000, 14:11:21.459, 1560510681459
211, 15997.37, 27584.13, 39243.61, 28680.06, 26075.68, 21170.59, 13198.01, 17268.09, 0.000, 0.000, 0.000, 14:11:21.459, 1560510681459
212, 15896.00, 27582.10, 39265.06, 28588.51, 26192.85, 21096.76, 13269.83, 17166.18, 0.000, 0.000, 0.000, 14:11:21.459, 1560510681459
213, 15941.17, 27504.51, 39074.02, 28623.91, 25933.81, 21076.64, 12942.33, 17222.33, 0.000, 0.000, 0.000, 14:11:21.459, 1560510681459
214, 16063.37, 27511.93, 39029.74, 28734.26, 25802.05, 21153.27, 12849.21, 17336.77, 0.000, 0.000, 0.000, 14:11:21.459, 1560510681459
215, 16078.62, 27561.51, 39137.14, 28734.57, 25917.83, 21190.23, 13020.61, 17344.13, 0.008, 0.052, -1.038, 14:11:21.459, 1560510681459
216, 16011.60, 27595.17, 39232.38, 28684.95, 26078.43, 21172.42, 13195.44, 17276.15, 0.000, 0.000, 0.000, 14:11:21.459, 1560510681459
217, 15885.97, 27576.08, 39237.01, 28579.34, 26179.17, 21078.92, 13263.88, 17159.52, 0.000, 0.000, 0.000, 14:11:21.459, 1560510681459
218, 15958.00, 27505.29, 39057.53, 28622.66, 25940.07, 21070.54, 12946.13, 17227.74, 0.000, 0.000, 0.000, 14:11:21.459, 1560510681459
219, 16100.61, 27524.41, 39018.39, 28741.46, 25814.16, 21165.56, 12848.39, 17343.95, 0.000, 0.000, 0.000, 14:11:21.459, 1560510681459
220, 16101.73, 27583.26, 39136.25, 28760.93, 25937.54, 21213.64, 13026.64, 17351.12, 0.000, 0.000, 0.000, 14:11:21.459, 1560510681459
221, 16021.93, 27613.90, 39238.44, 28706.97, 26096.35, 21191.82, 13198.28, 17280.89, 0.000, 0.000, 0.000, 14:11:21.459, 1560510681459
222, 15905.14, 27591.42, 39265.26, 28615.84, 26207.38, 21110.51, 13274.34, 17175.17, 0.000, 0.000, 0.000, 14:11:21.459, 1560510681459
223, 15969.96, 27518.66, 39087.90, 28658.78, 25972.97, 21103.09, 12962.85, 17246.92, 0.000, 0.000, 0.000, 14:11:21.460, 1560510681460
224, 16097.82, 27524.76, 39048.81, 28758.94, 25830.81, 21185.45, 12854.64, 17354.27, 0.000, 0.000, 0.000, 14:11:21.460, 1560510681460
225, 16097.10, 27572.06, 39145.88, 28766.54, 25938.13, 21218.96, 13021.14, 17346.21, 0.014, 0.052, -1.038, 14:11:21.460, 1560510681460
226, 16038.45, 27605.32, 39253.66, 28712.25, 26095.97, 21203.45, 13198.28, 17280.49, 0.000, 0.000, 0.000, 14:11:21.460, 1560510681460
227, 15929.39, 27596.89, 39283.39, 28624.96, 26219.76, 21129.68, 13276.85, 17174.41, 0.000, 0.000, 0.000, 14:11:21.460, 1560510681460
228, 15962.90, 27515.96, 39080.32, 28652.28, 25976.08, 21105.30, 12950.94, 17223.87, 0.000, 0.000, 0.000, 14:11:21.460, 1560510681460
229, 16088.65, 27524.09, 39048.59, 28747.65, 25826.50, 21180.31, 12831.89, 17326.47, 0.000, 0.000, 0.000, 14:11:21.460, 1560510681460
230, 16091.49, 27562.81, 39151.61, 28744.61, 25930.62, 21207.18, 12993.52, 17317.64, 0.000, 0.000, 0.000, 14:11:21.460, 1560510681460
231, 16019.67, 27590.19, 39233.73, 28694.14, 26079.10, 21184.96, 13160.68, 17248.26, 0.000, 0.000, 0.000, 14:11:21.460, 1560510681460
232, 15904.32, 27596.89, 39262.58, 28595.01, 26196.47, 21106.66, 13247.32, 17149.78, 0.000, 0.000, 0.000, 14:11:21.460, 1560510681460
233, 15947.57, 27515.62, 39085.80, 28629.72, 25955.25, 21085.88, 12936.88, 17214.08, 0.000, 0.000, 0.000, 14:11:21.460, 1560510681460
234, 16082.59, 27514.66, 39046.26, 28741.77, 25806.74, 21173.11, 12828.25, 17330.96, 0.008, 0.052, -1.032, 14:11:21.460, 1560510681460
235, 16092.14, 27562.52, 39151.80, 28754.87, 25916.27, 21208.23, 12995.80, 17328.77, 0.000, 0.000, 0.000, 14:11:21.460, 1560510681460
236, 16012.81, 27583.91, 39238.02, 28683.95, 26054.36, 21167.97, 13153.93, 17250.70, 0.000, 0.000, 0.000, 14:11:21.460, 1560510681460
237, 15896.16, 27575.73, 39259.79, 28582.31, 26170.76, 21088.94, 13242.56, 17147.10, 0.000, 0.000, 0.000, 14:11:21.460, 1560510681460
238, 15941.60, 27499.82, 39061.37, 28616.96, 25924.25, 21072.49, 12932.05, 17209.97, 0.000, 0.000, 0.000, 14:11:21.460, 1560510681460
239, 16065.94, 27501.54, 39009.78, 28715.42, 25773.57, 21149.58, 12815.80, 17320.88, 0.000, 0.000, 0.000, 14:11:21.460, 1560510681460
240, 16070.64, 27551.65, 39118.34, 28712.16, 25884.53, 21178.88, 12982.92, 17317.77, 0.000, 0.000, 0.000, 14:11:21.930, 1560510681930
241, 16001.23, 27584.55, 39225.05, 28660.23, 26038.51, 21157.80, 13154.18, 17256.71, 0.000, 0.000, 0.000, 14:11:21.930, 1560510681930
242, 15887.87, 27578.16, 39247.43, 28566.58, 26160.48, 21081.79, 13243.27, 17153.24, 0.000, 0.000, 0.000, 14:11:21.930, 1560510681930
243, 15941.75, 27500.65, 39040.74, 28594.99, 25920.83, 21054.09, 12931.49, 17207.80, 0.000, 0.000, 0.000, 14:11:21.930, 1560510681930
244, 16079.91, 27509.95, 39009.89, 28710.32, 25778.85, 21146.47, 12819.02, 17328.53, 0.006, 0.048, -1.034, 14:11:21.930, 1560510681930
245, 16080.09, 27551.63, 39123.20, 28723.67, 25894.81, 21186.05, 12989.92, 17331.03, 0.000, 0.000, 0.000, 14:11:21.930, 1560510681930
246, 16019.03, 27594.93, 39223.36, 28682.54, 26055.12, 21175.13, 13171.64, 17277.00, 0.000, 0.000, 0.000, 14:11:21.930, 1560510681930
247, 15915.94, 27603.73, 39283.61, 28596.42, 26179.39, 21108.81, 13265.11, 17171.50, 0.000, 0.000, 0.000, 14:11:21.930, 1560510681930
248, 15972.22, 27526.93, 39085.91, 28632.67, 25941.46, 21090.93, 12954.56, 17231.09, 0.000, 0.000, 0.000, 14:11:21.930, 1560510681930
249, 16103.27, 27527.09, 39038.57, 28754.76, 25795.83, 21179.80, 12839.58, 17354.52, 0.000, 0.000, 0.000, 14:11:21.931, 1560510681931
250, 16109.46, 27572.44, 39152.54, 28765.11, 25906.99, 21220.32, 13013.14, 17358.56, 0.000, 0.000, 0.000, 14:11:21.931, 1560510681931
251, 16042.52, 27604.20, 39228.38, 28704.02, 26057.55, 21201.90, 13178.43, 17291.73, 0.000, 0.000, 0.000, 14:11:21.931, 1560510681931
252, 15917.33, 27601.27, 39240.23, 28608.62, 26178.05, 21120.52, 13262.03, 17178.50, 0.000, 0.000, 0.000, 14:11:21.931, 1560510681931
253, 15965.34, 27531.94, 39087.93, 28645.97, 25951.96, 21103.73, 12957.44, 17242.45, 0.000, 0.000, 0.000, 14:11:21.931, 1560510681931
254, 16106.96, 27539.76, 39060.36, 28746.78, 25798.70, 21191.49, 12832.09, 17362.74, 0.004, 0.044, -1.036, 14:11:21.931, 1560510681931
255, 16118.47, 27589.61, 39164.28, 28760.28, 25912.33, 21235.12, 12998.37, 17365.43, 0.000, 0.000, 0.000, 14:11:21.931, 1560510681931
0, 16066.28, 27627.45, 39252.48, 28721.50, 26068.23, 21224.17, 13173.85, 17307.69, 0.000, 0.000, 0.000, 14:11:21.931, 1560510681931
1, 15962.79, 27623.58, 39301.03, 28632.40, 26197.83, 21150.47, 13274.41, 17203.56, 0.000, 0.000, 0.000, 14:11:21.931, 1560510681931
2, 15993.50, 27536.12, 39098.83, 28648.23, 25960.52, 21111.74, 12956.30, 17242.83, 0.000, 0.000, 0.000, 14:11:21.931, 1560510681931
3, 16111.05, 27532.79, 39030.35, 28743.65, 25792.41, 21182.93, 12820.09, 17349.11, 0.000, 0.000, 0.000, 14:11:21.931, 1560510681931
4, 16117.60, 27566.32, 39142.06, 28746.04, 25895.81, 21216.37, 12987.44, 17350.90, 0.000, 0.000, 0.000, 14:11:21.931, 1560510681931
5, 16045.85, 27593.07, 39245.41, 28704.51, 26049.06, 21204.38, 13160.06, 17298.48, 0.000, 0.000, 0.000, 14:11:21.931, 1560510681931
6, 15919.16, 27587.88, 39274.05, 28607.08, 26172.69, 21118.73, 13255.72, 17185.14, 0.000, 0.000, 0.000, 14:11:21.931, 1560510681931
7, 15960.02, 27511.22, 39084.32, 28633.84, 25946.78, 21093.36, 12949.62, 17233.37, 0.000, 0.000, 0.000, 14:11:21.931, 1560510681931
8, 16084.11, 27507.96, 39030.26, 28737.19, 25775.63, 21163.44, 12800.82, 17337.00, 0.004, 0.050, -1.042, 14:11:21.931, 1560510681931
9, 16101.55, 27568.39, 39129.16, 28752.66, 25882.89, 21202.33, 12974.43, 17342.05, 0.000, 0.000, 0.000, 14:11:21.931, 1560510681931
10, 16050.16, 27603.38, 39225.12, 28694.30, 26035.80, 21190.37, 13145.24, 17279.04, 0.000, 0.000, 0.000, 14:11:21.931, 1560510681931
11, 15927.83, 27581.49, 39263.95, 28592.75, 26161.49, 21113.61, 13238.87, 17159.79, 0.000, 0.000, 0.000, 14:11:21.931, 1560510681931
12, 15958.05, 27504.11, 39084.46, 28616.92, 25934.79, 21087.13, 12937.30, 17212.81, 0.000, 0.000, 0.000, 14:11:21.931, 1560510681931
13, 16100.39, 27512.92, 39033.27, 28727.76, 25775.88, 21168.08, 12806.57, 17333.35, 0.000, 0.000, 0.000, 14:11:21.931, 1560510681931
14, 16112.37, 27563.19, 39137.66, 28738.22, 25878.42, 21209.97, 12977.85, 17337.64, 0.000, 0.000, 0.000, 14:11:21.934, 1560510681934
15, 16050.05, 27591.37, 39232.09, 28696.67, 26028.00, 21194.97, 13142.07, 17271.93, 0.000, 0.000, 0.000, 14:11:21.934, 1560510681934
16, 15925.93, 27588.82, 39269.91, 28601.89, 26156.23, 21115.20, 13240.35, 17156.15, 0.000, 0.000, 0.000, 14:11:21.934, 1560510681934
17, 15975.28, 27523.56, 39094.18, 28633.05, 25941.10, 21096.49, 12945.04, 17212.50, 0.000, 0.000, 0.000, 14:11:21.934, 1560510681934
18, 16104.48, 27522.95, 39041.86, 28736.59, 25768.52, 21175.93, 12794.18, 17323.47, 0.002, 0.046, -1.044, 14:11:21.934, 1560510681934
19, 16102.02, 27565.42, 39134.77, 28740.01, 25865.30, 21209.08, 12953.75, 17319.25, 0.000, 0.000, 0.000, 14:11:21.934, 1560510681934
20, 16031.74, 27585.43, 39208.63, 28688.06, 26008.36, 21182.55, 13110.77, 17247.68, 0.000, 0.000, 0.000, 14:11:21.934, 1560510681934
21, 15920.23, 27595.91, 39248.12, 28599.93, 26140.65, 21110.06, 13220.56, 17141.35, 0.000, 0.000, 0.000, 14:11:21.934, 1560510681934
22, 15961.74, 27522.33, 39088.86, 28635.36, 25916.96, 21087.33, 12924.36, 17193.27, 0.000, 0.000, 0.000, 14:11:21.934, 1560510681934
23, 16088.74, 27512.65, 39029.70, 28728.00, 25745.10, 21161.83, 12772.14, 17309.15, 0.000, 0.000, 0.000, 14:11:21.934, 1560510681934
24, 16106.64, 27558.34, 39110.54, 28731.83, 25852.76, 21201.05, 12936.36, 17313.97, 0.000, 0.000, 0.000, 14:11:21.934, 1560510681934
25, 16045.09, 27592.67, 39207.71, 28677.44, 25993.18, 21179.48, 13106.10, 17254.72, 0.000, 0.000, 0.000, 14:11:21.934, 1560510681934
26, 15940.01, 27608.36, 39269.98, 28594.38, 26137.77, 21114.73, 13229.19, 17161.29, 0.000, 0.000, 0.000, 14:11:21.934, 1560510681934
27, 15969.96, 27526.60, 39093.63, 28622.48, 25924.94, 21086.84, 12933.25, 17210.82, 0.000, 0.000, 0.000, 14:11:21.934, 1560510681934
28, 16092.45, 27510.10, 39030.35, 28717.68, 25738.21, 21156.08, 12775.72, 17322.71, 0.006, 0.046, -1.042, 14:11:21.934, 1560510681934
29, 16107.43, 27548.26, 39121.50, 28727.15, 25829.65, 21191.22, 12939.56, 17325.93, 0.000, 0.000, 0.000, 14:11:21.934, 1560510681934
30, 16053.11, 27577.76, 39203.24, 28682.56, 25976.15, 21172.82, 13108.02, 17266.30, 0.000, 0.000, 0.000, 14:11:21.935, 1560510681935
31, 15933.80, 27585.38, 39236.81, 28588.60, 26118.79, 21100.94, 13220.86, 17155.41, 0.000, 0.000, 0.000, 14:11:21.935, 1560510681935
32, 15973.96, 27512.45, 39058.69, 28619.60, 25898.59, 21076.82, 12922.42, 17205.41, 0.000, 0.000, 0.000, 14:11:21.935, 1560510681935
33, 16104.81, 27515.55, 39020.07, 28736.90, 25734.35, 21164.66, 12779.56, 17332.44, 0.000, 0.000, 0.000, 14:11:21.935, 1560510681935
34, 16105.95, 27558.83, 39128.87, 28746.11, 25842.39, 21208.09, 12947.54, 17337.31, 0.000, 0.000, 0.000, 14:11:21.935, 1560510681935
35, 16064.27, 27592.91, 39220.63, 28695.84, 25986.18, 21197.01, 13113.16, 17275.39, 0.000, 0.000, 0.000, 14:11:21.935, 1560510681935
36, 15939.99, 27598.21, 39273.49, 28602.21, 26123.24, 21124.39, 13223.96, 17156.91, 0.000, 0.000, 0.000, 14:11:21.935, 1560510681935
37, 15965.74, 27518.68, 39081.06, 28623.62, 25917.96, 21100.89, 12934.71, 17205.34, 0.000, 0.000, 0.000, 14:11:21.935, 1560510681935
38, 16104.61, 27516.40, 39026.46, 28739.85, 25748.20, 21186.01, 12787.37, 17326.56, 0.010, 0.050, -1.046, 14:11:21.935, 1560510681935
39, 16123.36, 27565.53, 39134.62, 28754.87, 25851.20, 21228.99, 12948.57, 17329.31, 0.000, 0.000, 0.000, 14:11:21.935, 1560510681935
40, 16077.79, 27593.92, 39226.95, 28715.82, 25997.07, 21214.58, 13112.72, 17268.20, 0.000, 0.000, 0.000, 14:11:21.935, 1560510681935
41, 15963.68, 27596.92, 39264.17, 28614.39, 26144.43, 21137.11, 13232.05, 17154.83, 0.000, 0.000, 0.000, 14:11:21.935, 1560510681935
42, 15977.47, 27523.69, 39080.35, 28628.05, 25927.78, 21103.98, 12939.20, 17193.32, 0.000, 0.000, 0.000, 14:11:21.935, 1560510681935
43, 16104.36, 27519.27, 39026.34, 28735.29, 25751.27, 21186.68, 12782.13, 17315.43, 0.000, 0.000, 0.000, 14:11:21.935, 1560510681935
44, 16124.70, 27572.87, 39155.18, 28761.98, 25869.10, 21240.13, 12955.52, 17336.86, 0.000, 0.000, 0.000, 14:11:21.935, 1560510681935
45, 16064.06, 27599.33, 39236.21, 28712.51, 26011.28, 21217.19, 13119.04, 17275.01, 0.000, 0.000, 0.000, 14:11:21.935, 1560510681935
46, 15950.88, 27605.90, 39275.75, 28605.31, 26150.96, 21138.92, 13234.04, 17160.57, 0.000, 0.000, 0.000, 14:11:21.935, 1560510681935
47, 15986.88, 27534.67, 39101.78, 28623.51, 25941.03, 21105.30, 12941.19, 17204.83, 0.000, 0.000, 0.000, 14:11:21.935, 1560510681935
48, 16127.74, 27527.69, 39044.32, 28749.51, 25758.11, 21181.88, 12780.75, 17329.11, 0.008, 0.056, -1.038, 14:11:21.935, 1560510681935
49, 16136.17, 27572.82, 39148.59, 28755.43, 25857.03, 21223.65, 12946.38, 17340.66, 0.000, 0.000, 0.000, 14:11:21.935, 1560510681935
50, 16087.42, 27613.48, 39243.67, 28708.31, 26008.06, 21217.79, 13118.75, 17295.80, 0.000, 0.000, 0.000, 14:11:21.935, 1560510681935
51, 15977.56, 27622.29, 39290.30, 28621.34, 26161.06, 21154.36, 13248.10, 17196.04, 0.000, 0.000, 0.000, 14:11:21.935, 1560510681935
52, 16009.84, 27539.20, 39111.26, 28639.04, 25950.66, 21120.68, 12960.95, 17240.19, 0.000, 0.000, 0.000, 14:11:21.936, 1560510681936
53, 16147.64, 27527.94, 39048.23, 28750.69, 25764.90, 21197.63, 12793.27, 17359.97, 0.000, 0.000, 0.000, 14:11:21.936, 1560510681936
54, 16168.60, 27585.09, 39169.96, 28775.32, 25874.18, 21250.21, 12973.15, 17384.70, 0.000, 0.000, 0.000, 14:11:21.936, 1560510681936
55, 16101.88, 27623.76, 39258.34, 28732.03, 26021.25, 21235.10, 13141.35, 17331.23, 0.000, 0.000, 0.000, 14:11:21.936, 1560510681936
56, 15987.44, 27632.86, 39308.96, 28642.89, 26168.08, 21163.32, 13266.30, 17217.93, 0.000, 0.000, 0.000, 14:11:21.936, 1560510681936
57, 16023.72, 27561.96, 39135.04, 28666.25, 25963.96, 21132.10, 12977.06, 17259.55, 0.000, 0.000, 0.000, 14:11:21.936, 1560510681936
58, 16162.30, 27566.72, 39070.71, 28776.17, 25786.76, 21221.77, 12822.88, 17396.09, 0.008, 0.054, -1.040, 14:11:21.936, 1560510681936
59, 16171.22, 27619.89, 39157.42, 28791.30, 25888.08, 21260.84, 12982.21, 17403.27, 0.000, 0.000, 0.000, 14:11:21.936, 1560510681936
60, 16115.92, 27648.46, 39244.68, 28744.48, 26025.52, 21239.05, 13139.00, 17336.15, 0.000, 0.000, 0.000, 14:11:21.936, 1560510681936
61, 15993.28, 27639.36, 39283.05, 28643.40, 26157.06, 21155.12, 13256.04, 17212.16, 0.000, 0.000, 0.000, 14:11:21.936, 1560510681936
62, 16010.29, 27559.43, 39101.76, 28654.04, 25950.02, 21115.78, 12974.02, 17250.25, 0.000, 0.000, 0.000, 14:11:21.937, 1560510681937
63, 16143.86, 27543.85, 39045.48, 28759.72, 25762.02, 21193.41, 12798.18, 17365.27, 0.000, 0.000, 0.000, 14:11:21.937, 1560510681937
64, 16163.13, 27592.27, 39163.47, 28772.08, 25851.40, 21238.54, 12956.88, 17363.88, 0.000, 0.000, 0.000, 14:11:21.937, 1560510681937
65, 16109.39, 27627.31, 39247.89, 28732.72, 25996.26, 21219.96, 13116.74, 17304.09, 0.000, 0.000, 0.000, 14:11:21.937, 1560510681937
66, 15986.91, 27631.96, 39284.44, 28632.31, 26146.82, 21152.86, 13247.16, 17197.07, 0.000, 0.000, 0.000, 14:11:21.937, 1560510681937
67, 16012.70, 27559.43, 39119.22, 28644.63, 25940.00, 21119.13, 12966.43, 17233.55, 0.000, 0.000, 0.000, 14:11:21.937, 1560510681937
68, 16126.47, 27535.96, 39039.64, 28739.94, 25738.28, 21180.49, 12772.43, 17335.81, 0.008, 0.052, -1.032, 14:11:21.937, 1560510681937
69, 16135.66, 27571.46, 39131.04, 28749.42, 25831.75, 21226.94, 12929.32, 17342.23, 0.000, 0.000, 0.000, 14:11:21.937, 1560510681937
70, 16085.88, 27602.35, 39206.32, 28709.05, 25977.38, 21215.45, 13092.00, 17283.89, 0.000, 0.000, 0.000, 14:11:21.937, 1560510681937
71, 15973.09, 27610.24, 39264.48, 28613.90, 26127.60, 21142.40, 13218.98, 17168.13, 0.000, 0.000, 0.000, 14:11:21.937, 1560510681937
72, 15987.44, 27527.42, 39101.29, 28622.01, 25922.21, 21102.93, 12940.61, 17202.44, 0.000, 0.000, 0.000, 14:11:21.937, 1560510681937
73, 16113.39, 27512.05, 39019.71, 28730.66, 25724.60, 21168.98, 12757.06, 17317.86, 0.000, 0.000, 0.000, 14:11:21.937, 1560510681937
74, 16116.86, 27549.98, 39128.58, 28734.87, 25809.07, 21202.57, 12906.32, 17318.22, 0.000, 0.000, 0.000, 14:11:21.937, 1560510681937
75, 16070.21, 27584.49, 39214.30, 28680.33, 25951.94, 21192.13, 13073.20, 17267.24, 0.000, 0.000, 0.000, 14:11:21.937, 1560510681937
76, 15965.34, 27598.19, 39266.94, 28575.05, 26101.88, 21119.07, 13209.54, 17159.97, 0.000, 0.000, 0.000, 14:11:21.937, 1560510681937
77, 15991.42, 27533.62, 39113.68, 28596.96, 25907.35, 21080.51, 12939.42, 17201.68, 0.000, 0.000, 0.000, 14:11:21.937, 1560510681937
78, 16124.75, 27518.77, 39025.16, 28713.25, 25714.72, 21164.38, 12760.30, 17330.31, 0.008, 0.054, -1.042, 14:11:21.938, 1560510681938
79, 16129.55, 27550.11, 39129.07, 28726.01, 25810.10, 21209.64, 12914.35, 17339.99, 0.000, 0.000, 0.000, 14:11:21.938, 1560510681938
80, 16085.86, 27586.97, 39216.31, 28694.72, 25958.38, 21203.87, 13079.99, 17295.02, 0.000, 0.000, 0.000, 14:11:21.938, 1560510681938
81, 15972.91, 27595.80, 39262.65, 28601.54, 26118.35, 21136.44, 13218.53, 17184.89, 0.000, 0.000, 0.000, 14:11:21.938, 1560510681938
82, 15983.17, 27523.45, 39081.71, 28608.58, 25918.37, 21095.38, 12939.92, 17212.79, 0.000, 0.000, 0.000, 14:11:21.938, 1560510681938
83, 16123.63, 27523.18, 39019.26, 28729.43, 25723.59, 21175.21, 12758.49, 17342.45, 0.000, 0.000, 0.000, 14:11:21.938, 1560510681938
84, 16140.55, 27564.82, 39129.27, 28740.23, 25820.53, 21218.96, 12916.76, 17352.64, 0.000, 0.000, 0.000, 14:11:21.938, 1560510681938
85, 16086.44, 27597.21, 39215.26, 28703.64, 25963.70, 21202.55, 13077.65, 17297.43, 0.000, 0.000, 0.000, 14:11:21.938, 1560510681938
86, 15984.20, 27618.64, 39279.34, 28615.91, 26127.71, 21141.02, 13223.47, 17197.83, 0.000, 0.000, 0.000, 14:11:21.938, 1560510681938
87, 16003.98, 27548.10, 39114.10, 28629.74, 25938.01, 21109.95, 12953.46, 17232.61, 0.008, 0.056, -1.038, 14:11:21.938, 1560510681938
88, 16139.75, 27538.60, 39046.95, 28741.17, 25732.45, 21189.92, 12765.59, 17354.86, 0.000, 0.000, 0.000, 14:11:21.938, 1560510681938
89, 16178.28, 27593.90, 39174.05, 28761.91, 25825.72, 21243.59, 12927.58, 17372.96, 0.000, 0.000, 0.000, 14:11:21.938, 1560510681938
90, 16135.52, 27627.96, 39230.84, 28719.96, 25961.35, 21231.81, 13089.74, 17320.72, 0.000, 0.000, 0.000, 14:11:21.938, 1560510681938
91, 16001.77, 27643.14, 39275.30, 28624.38, 26121.03, 21161.47, 13226.04, 17203.20, 0.000, 0.000, 0.000, 14:11:21.938, 1560510681938
92, 16008.21, 27565.98, 39125.99, 28637.57, 25931.91, 21123.74, 12960.68, 17233.06, 0.000, 0.000, 0.000, 14:11:21.938, 1560510681938
93, 16149.38, 27546.74, 39036.61, 28754.60, 25733.12, 21204.50, 12774.31, 17362.57, 0.000, 0.000, 0.000, 14:11:21.938, 1560510681938
94, 16171.46, 27589.25, 39134.95, 28775.57, 25822.32, 21253.07, 12931.24, 17375.31, 0.000, 0.000, 0.000, 14:11:21.938, 1560510681938
95, 16112.43, 27615.04, 39230.95, 28733.30, 25967.21, 21240.82, 13095.33, 17325.15, 0.000, 0.000, 0.000, 14:11:21.939, 1560510681939
96, 16005.70, 27631.09, 39289.49, 28646.46, 26126.82, 21174.12, 13239.18, 17214.17, 0.000, 0.000, 0.000, 14:11:21.939, 1560510681939
97, 16023.81, 27562.61, 39131.45, 28658.60, 25942.51, 21133.06, 12972.68, 17239.86, 0.008, 0.060, -1.042, 14:11:21.939, 1560510681939
98, 16144.75, 27543.72, 39052.32, 28751.07, 25734.72, 21197.23, 12771.47, 17357.52, 0.000, 0.000, 0.000, 14:11:21.939, 1560510681939
99, 16164.18, 27586.34, 39142.80, 28766.52, 25823.62, 21244.24, 12925.88, 17373.12, 0.000, 0.000, 0.000, 14:11:21.939, 1560510681939
100, 16113.86, 27614.33, 39211.80, 28731.56, 25956.12, 21228.48, 13078.14, 17318.33, 0.000, 0.000, 0.000, 14:11:21.939, 1560510681939
101, 15994.75, 27628.79, 39285.45, 28631.67, 26112.71, 21157.80, 13218.60, 17203.47, 0.000, 0.000, 0.000, 14:11:21.939, 1560510681939
102, 16010.08, 27548.95, 39112.73, 28621.70, 25923.42, 21118.24, 12949.06, 17224.03, 0.000, 0.000, 0.000, 14:11:21.939, 1560510681939
103, 16150.34, 27531.60, 39014.79, 28732.16, 25714.43, 21194.79, 12756.68, 17349.56, 0.000, 0.000, 0.000, 14:11:21.939, 1560510681939
104, 16172.36, 27583.77, 39134.39, 28761.84, 25810.88, 21245.40, 12915.93, 17368.89, 0.000, 0.000, 0.000, 14:11:22.413, 1560510682413
105, 16113.89, 27609.68, 39220.89, 28713.12, 25941.59, 21224.72, 13064.84, 17310.80, 0.000, 0.000, 0.000, 14:11:22.413, 1560510682413
106, 15999.36, 27620.94, 39270.74, 28618.99, 26100.56, 21153.82, 13210.57, 17195.82, 0.000, 0.000, 0.000, 14:11:22.413, 1560510682413
107, 15994.89, 27538.87, 39102.43, 28617.23, 25919.80, 21106.88, 12950.56, 17217.64, 0.004, 0.054, -1.040, 14:11:22.413, 1560510682413
108, 16130.72, 27519.65, 39006.65, 28730.17, 25710.14, 21182.95, 12756.05, 17346.74, 0.000, 0.000, 0.000, 14:11:22.414, 1560510682414
109, 16161.50, 27571.77, 39118.97, 28754.83, 25793.06, 21232.86, 12916.02, 17369.85, 0.000, 0.000, 0.000, 14:11:22.414, 1560510682414
110, 16104.54, 27602.37, 39209.38, 28711.13, 25930.21, 21216.54, 13071.34, 17315.72, 0.000, 0.000, 0.000, 14:11:22.414, 1560510682414
111, 15998.33, 27622.53, 39284.17, 28613.41, 26093.40, 21149.87, 13218.69, 17200.63, 0.000, 0.000, 0.000, 14:11:22.414, 1560510682414
112, 16015.67, 27562.74, 39126.06, 28623.22, 25913.94, 21112.43, 12962.09, 17229.44, 0.000, 0.000, 0.000, 14:11:22.414, 1560510682414
113, 16165.41, 27545.24, 39022.57, 28742.04, 25709.80, 21191.20, 12758.15, 17359.95, 0.000, 0.000, 0.000, 14:11:22.414, 1560510682414
114, 16183.09, 27573.74, 39117.47, 28759.50, 25797.06, 21236.82, 12912.29, 17374.46, 0.000, 0.000, 0.000, 14:11:22.414, 1560510682414
115, 16114.49, 27600.49, 39204.15, 28714.97, 25932.36, 21224.50, 13068.04, 17319.96, 0.000, 0.000, 0.000, 14:11:22.414, 1560510682414
116, 15988.76, 27602.57, 39261.57, 28620.58, 26088.04, 21150.03, 13210.19, 17196.69, 0.000, 0.000, 0.000, 14:11:22.414, 1560510682414
117, 15999.07, 27532.30, 39120.83, 28620.38, 25907.64, 21105.61, 12946.38, 17214.60, 0.004, 0.050, -1.042, 14:11:22.414, 1560510682414
118, 16139.37, 27521.77, 39036.89, 28729.72, 25693.46, 21180.40, 12738.21, 17343.12, 0.000, 0.000, 0.000, 14:11:22.414, 1560510682414
119, 16165.97, 27569.33, 39141.19, 28766.89, 25785.29, 21239.03, 12897.92, 17368.15, 0.000, 0.000, 0.000, 14:11:22.414, 1560510682414
120, 16106.82, 27596.78, 39198.34, 28723.64, 25928.22, 21227.05, 13056.19, 17313.86, 0.000, 0.000, 0.000, 14:11:22.414, 1560510682414
121, 15997.23, 27612.63, 39259.07, 28630.71, 26099.28, 21166.12, 13211.62, 17203.00, 0.000, 0.000, 0.000, 14:11:22.415, 1560510682415
122, 16014.11, 27545.26, 39119.71, 28636.27, 25923.22, 21121.08, 12954.80, 17221.75, 0.000, 0.000, 0.000, 14:11:22.415, 1560510682415
123, 16148.80, 27527.80, 39038.46, 28744.14, 25708.08, 21189.88, 12740.96, 17344.86, 0.000, 0.000, 0.000, 14:11:22.415, 1560510682415
124, 16158.37, 27571.19, 39116.89, 28759.81, 25786.38, 21232.17, 12884.42, 17351.08, 0.000, 0.000, 0.000, 14:11:22.415, 1560510682415
125, 16109.95, 27595.11, 39198.43, 28717.05, 25920.71, 21222.44, 13039.74, 17301.48, 0.000, 0.000, 0.000, 14:11:22.415, 1560510682415
126, 15993.21, 27595.28, 39274.63, 28620.20, 26084.13, 21149.46, 13190.90, 17183.71, 0.000, 0.000, 0.000, 14:11:22.415, 1560510682415
127, 16005.01, 27528.61, 39107.21, 28626.19, 25917.76, 21108.83, 12947.05, 17206.26, 0.006, 0.052, -1.034, 14:11:22.415, 1560510682415
128, 16144.69, 27514.84, 39016.27, 28751.29, 25703.86, 21191.22, 12742.95, 17343.25, 0.000, 0.000, 0.000, 14:11:22.415, 1560510682415
129, 16179.78, 27569.20, 39133.86, 28774.16, 25788.39, 21250.65, 12897.47, 17370.68, 0.000, 0.000, 0.000, 14:11:22.415, 1560510682415
130, 16125.24, 27599.33, 39227.71, 28730.10, 25929.79, 21241.15, 13054.89, 17321.21, 0.000, 0.000, 0.000, 14:11:22.415, 1560510682415
131, 16009.44, 27618.53, 39294.28, 28635.38, 26096.40, 21172.42, 13209.05, 17205.99, 0.000, 0.000, 0.000, 14:11:22.416, 1560510682416
132, 16007.87, 27544.99, 39136.27, 28624.07, 25920.38, 21119.96, 12953.77, 17218.08, 0.000, 0.000, 0.000, 14:11:22.416, 1560510682416
133, 16165.09, 27530.38, 39035.44, 28749.39, 25708.66, 21200.09, 12742.91, 17356.87, 0.000, 0.000, 0.000, 14:11:22.416, 1560510682416
134, 16193.23, 27572.02, 39127.60, 28774.25, 25785.66, 21246.56, 12890.70, 17375.98, 0.000, 0.000, 0.000, 14:11:22.416, 1560510682416
135, 16142.59, 27608.52, 39205.36, 28726.04, 25917.14, 21230.33, 13048.70, 17324.35, 0.000, 0.000, 0.000, 14:11:22.416, 1560510682416
136, 16013.88, 27620.21, 39280.06, 28638.71, 26085.76, 21169.13, 13204.70, 17205.95, 0.000, 0.000, 0.000, 14:11:22.416, 1560510682416
137, 15998.22, 27545.98, 39129.23, 28635.58, 25917.81, 21126.06, 12958.04, 17226.85, 0.010, 0.048, -1.030, 14:11:22.416, 1560510682416
138, 16131.61, 27522.17, 39016.04, 28737.03, 25686.20, 21189.95, 12734.28, 17349.89, 0.000, 0.000, 0.000, 14:11:22.416, 1560510682416
139, 16179.26, 27571.97, 39109.56, 28758.74, 25766.40, 21241.20, 12879.70, 17367.51, 0.000, 0.000, 0.000, 14:11:22.417, 1560510682417
140, 16126.16, 27604.78, 39200.80, 28717.45, 25901.69, 21227.14, 13033.61, 17312.56, 0.000, 0.000, 0.000, 14:11:22.417, 1560510682417
141, 16004.65, 27618.22, 39273.42, 28620.87, 26064.44, 21158.00, 13186.01, 17193.23, 0.000, 0.000, 0.000, 14:11:22.417, 1560510682417
142, 15995.73, 27532.30, 39126.32, 28610.75, 25891.68, 21105.84, 12935.02, 17200.58, 0.000, 0.000, 0.000, 14:11:22.417, 1560510682417
143, 16145.00, 27512.40, 39027.11, 28718.71, 25665.63, 21170.95, 12708.60, 17319.54, 0.000, 0.000, 0.000, 14:11:22.417, 1560510682417
144, 16181.05, 27557.55, 39123.57, 28750.62, 25744.25, 21229.48, 12863.12, 17345.56, 0.000, 0.000, 0.000, 14:11:22.417, 1560510682417
145, 16136.37, 27597.61, 39201.96, 28728.63, 25891.99, 21239.16, 13039.18, 17321.13, 0.000, 0.000, 0.000, 14:11:22.417, 1560510682417
146, 16025.28, 27619.67, 39272.77, 28640.38, 26071.43, 21180.04, 13203.89, 17217.03, 0.000, 0.000, 0.000, 14:11:22.417, 1560510682417
147, 16014.38, 27547.09, 39122.59, 28626.71, 25904.58, 21124.63, 12952.48, 17220.74, 0.008, 0.050, -1.032, 14:11:22.417, 1560510682417
148, 16140.22, 27520.92, 39000.42, 28739.87, 25676.65, 21187.60, 12723.15, 17340.95, 0.000, 0.000, 0.000, 14:11:22.417, 1560510682417
149, 16169.03, 27572.17, 39098.81, 28764.04, 25759.45, 21244.17, 12875.92, 17368.49, 0.000, 0.000, 0.000, 14:11:22.418, 1560510682418
150, 16126.96, 27607.82, 39189.31, 28734.51, 25903.01, 21246.43, 13042.60, 17331.92, 0.000, 0.000, 0.000, 14:11:22.418, 1560510682418
151, 16003.92, 27611.69, 39256.86, 28635.13, 26068.37, 21173.36, 13194.37, 17211.13, 0.000, 0.000, 0.000, 14:11:22.418, 1560510682418
152, 16002.40, 27535.16, 39111.50, 28626.97, 25912.51, 21122.78, 12951.96, 17222.26, 0.000, 0.000, 0.000, 14:11:22.418, 1560510682418
153, 16134.11, 27511.29, 39009.85, 28742.62, 25685.86, 21192.83, 12726.28, 17355.21, 0.000, 0.000, 0.000, 14:11:22.418, 1560510682418
154, 16162.19, 27567.52, 39113.61, 28768.17, 25760.18, 21245.31, 12868.28, 17377.54, 0.000, 0.000, 0.000, 14:11:22.418, 1560510682418
155, 16122.40, 27603.46, 39183.90, 28731.63, 25904.78, 21239.61, 13025.66, 17331.95, 0.000, 0.000, 0.000, 14:11:22.418, 1560510682418
156, 16011.65, 27611.73, 39261.73, 28638.22, 26081.15, 21174.39, 13184.65, 17219.87, 0.000, 0.000, 0.000, 14:11:22.418, 1560510682418
157, 16019.25, 27540.10, 39133.05, 28635.29, 25923.24, 21131.88, 12953.24, 17235.45, 0.010, 0.048, -1.030, 14:11:22.418, 1560510682418
158, 16174.19, 27525.86, 39022.03, 28758.45, 25695.99, 21200.36, 12726.39, 17361.40, 0.000, 0.000, 0.000, 14:11:22.418, 1560510682418
159, 16195.34, 27570.29, 39100.42, 28778.79, 25761.12, 21246.99, 12864.97, 17374.03, 0.000, 0.000, 0.000, 14:11:22.418, 1560510682418
160, 16145.13, 27603.26, 39192.51, 28744.63, 25901.89, 21246.74, 13029.23, 17333.55, 0.000, 0.000, 0.000, 14:11:22.418, 1560510682418
161, 16012.52, 27611.58, 39264.50, 28648.90, 26071.16, 21176.47, 13188.62, 17218.44, 0.000, 0.000, 0.000, 14:11:22.418, 1560510682418
162, 16018.47, 27550.33, 39137.19, 28651.56, 25920.63, 21136.21, 12963.32, 17234.31, 0.000, 0.000, 0.000, 14:11:22.418, 1560510682418
163, 16162.90, 27527.49, 39040.76, 28766.43, 25698.00, 21208.18, 12732.72, 17363.71, 0.000, 0.000, 0.000, 14:11:22.419, 1560510682419
164, 16193.93, 27571.23, 39138.02, 28792.31, 25770.06, 21262.61, 12870.65, 17385.16, 0.000, 0.000, 0.000, 14:11:22.419, 1560510682419
165, 16146.41, 27608.76, 39219.35, 28758.63, 25903.59, 21259.15, 13027.83, 17341.31, 0.000, 0.000, 0.000, 14:11:22.419, 1560510682419
166, 16027.85, 27628.19, 39275.86, 28657.86, 26074.72, 21192.83, 13188.15, 17222.33, 0.000, 0.000, 0.000, 14:11:22.419, 1560510682419
167, 16008.16, 27561.85, 39123.62, 28640.47, 25916.58, 21139.12, 12955.43, 17225.88, 0.008, 0.054, -1.030, 14:11:22.419, 1560510682419
168, 16154.90, 27532.61, 39017.27, 28752.93, 25678.55, 21201.59, 12717.76, 17351.88, 0.000, 0.000, 0.000, 14:11:22.419, 1560510682419
169, 16200.70, 27580.20, 39136.88, 28775.90, 25749.43, 21255.81, 12856.59, 17371.51, 0.000, 0.000, 0.000, 14:11:22.420, 1560510682420
170, 16149.49, 27600.96, 39224.72, 28736.59, 25884.28, 21250.27, 13008.40, 17323.32, 0.000, 0.000, 0.000, 14:11:22.420, 1560510682420
171, 16044.77, 27623.85, 39287.50, 28656.63, 26068.12, 21197.32, 13172.20, 17215.49, 0.000, 0.000, 0.000, 14:11:22.420, 1560510682420
172, 16034.76, 27567.99, 39143.07, 28650.04, 25920.40, 21147.95, 12951.67, 17222.04, 0.000, 0.000, 0.000, 14:11:22.420, 1560510682420
173, 16167.64, 27537.95, 39024.11, 28750.78, 25678.55, 21210.89, 12716.09, 17349.63, 0.000, 0.000, 0.000, 14:11:22.420, 1560510682420
174, 16199.27, 27565.71, 39109.16, 28766.31, 25740.96, 21252.17, 12850.42, 17365.47, 0.000, 0.000, 0.000, 14:11:22.420, 1560510682420
175, 16147.32, 27587.88, 39196.75, 28729.72, 25870.85, 21240.73, 13006.79, 17321.69, 0.000, 0.000, 0.000, 14:11:22.420, 1560510682420
176, 16022.09, 27603.60, 39257.15, 28639.49, 26046.91, 21171.06, 13165.20, 17207.04, 0.000, 0.000, 0.000, 14:11:22.420, 1560510682420
177, 16006.13, 27536.12, 39103.55, 28617.74, 25893.24, 21107.67, 12934.35, 17202.80, 0.008, 0.052, -1.034, 14:11:22.421, 1560510682421
178, 16148.67, 27521.23, 39004.55, 28722.13, 25659.98, 21173.38, 12702.07, 17336.19, 0.000, 0.000, 0.000, 14:11:22.421, 1560510682421
179, 16188.00, 27573.02, 39103.26, 28763.92, 25733.41, 21229.87, 12851.67, 17364.49, 0.000, 0.000, 0.000, 14:11:22.421, 1560510682421
180, 16142.83, 27595.98, 39191.91, 28737.06, 25865.62, 21223.49, 13008.74, 17319.76, 0.000, 0.000, 0.000, 14:11:22.421, 1560510682421
181, 16023.58, 27613.32, 39275.32, 28632.72, 26040.97, 21160.93, 13174.63, 17204.12, 0.000, 0.000, 0.000, 14:11:22.421, 1560510682421
182, 16021.24, 27548.84, 39132.45, 28613.99, 25898.43, 21114.57, 12954.49, 17206.24, 0.000, 0.000, 0.000, 14:11:22.421, 1560510682421
183, 16168.60, 27519.38, 39018.25, 28739.22, 25665.14, 21187.24, 12711.97, 17336.44, 0.000, 0.000, 0.000, 14:11:22.421, 1560510682421
184, 16207.54, 27564.26, 39109.20, 28780.40, 25737.32, 21251.72, 12854.24, 17368.00, 0.000, 0.000, 0.000, 14:11:22.421, 1560510682421
185, 16173.74, 27599.55, 39184.64, 28756.66, 25878.22, 21255.73, 13015.51, 17330.87, 0.000, 0.000, 0.000, 14:11:22.421, 1560510682421
186, 16064.67, 27627.22, 39279.34, 28675.32, 26067.01, 21207.94, 13192.96, 17225.91, 0.010, 0.048, -1.036, 14:11:22.421, 1560510682421
187, 16034.11, 27554.31, 39139.94, 28656.79, 25923.84, 21153.53, 12969.84, 17217.91, 0.000, 0.000, 0.000, 14:11:22.421, 1560510682421
188, 16157.56, 27513.74, 39013.05, 28752.77, 25671.87, 21206.66, 12713.54, 17331.01, 0.000, 0.000, 0.000, 14:11:22.421, 1560510682421
189, 16206.80, 27575.66, 39109.14, 28797.41, 25748.11, 21274.75, 12856.88, 17366.59, 0.000, 0.000, 0.000, 14:11:22.421, 1560510682421
190, 16173.92, 27622.38, 39190.43, 28775.03, 25892.91, 21275.37, 13012.72, 17325.02, 0.000, 0.000, 0.000, 14:11:22.422, 1560510682422
191, 16064.24, 27641.80, 39292.33, 28689.65, 26076.06, 21218.53, 13181.40, 17210.55, 0.000, 0.000, 0.000, 14:11:22.422, 1560510682422
192, 16037.24, 27561.69, 39178.58, 28657.86, 25935.55, 21160.89, 12960.10, 17202.04, 0.000, 0.000, 0.000, 14:11:22.422, 1560510682422
193, 16162.90, 27524.07, 39040.16, 28756.52, 25677.41, 21209.10, 12700.64, 17314.91, 0.000, 0.000, 0.000, 14:11:22.422, 1560510682422
194, 16206.11, 27574.74, 39121.56, 28793.20, 25733.18, 21260.26, 12832.16, 17338.94, 0.000, 0.000, 0.000, 14:11:22.422, 1560510682422
195, 16151.59, 27593.70, 39181.06, 28750.85, 25863.96, 21255.03, 12986.65, 17294.95, 0.000, 0.000, 0.000, 14:11:22.422, 1560510682422
196, 16034.96, 27597.81, 39259.18, 28650.87, 26043.00, 21197.30, 13154.85, 17183.17, 0.006, 0.052, -1.042, 14:11:22.422, 1560510682422
197, 16026.25, 27541.39, 39139.78, 28639.54, 25911.50, 21150.18, 12947.40, 17191.98, 0.000, 0.000, 0.000, 14:11:22.422, 1560510682422
198, 16165.21, 27513.90, 39013.49, 28745.97, 25669.50, 21213.28, 12699.32, 17325.64, 0.000, 0.000, 0.000, 14:11:22.423, 1560510682423
199, 16218.36, 27568.46, 39110.43, 28781.20, 25748.22, 21276.00, 12845.84, 17364.38, 0.000, 0.000, 0.000, 14:11:22.423, 1560510682423
200, 16155.71, 27604.69, 39202.28, 28747.36, 25869.82, 21260.80, 12999.62, 17316.79, 0.000, 0.000, 0.000, 14:11:22.423, 1560510682423
201, 16046.45, 27644.21, 39287.32, 28664.08, 26043.89, 21204.83, 13168.84, 17209.08, 0.000, 0.000, 0.000, 14:11:22.423, 1560510682423
202, 16037.62, 27583.93, 39149.70, 28653.77, 25907.30, 21151.92, 12958.24, 17212.43, 0.000, 0.000, 0.000, 14:11:22.423, 1560510682423
203, 16173.86, 27530.44, 39014.41, 28750.98, 25657.68, 21206.48, 12703.12, 17335.41, 0.000, 0.000, 0.000, 14:11:22.423, 1560510682423
204, 16220.39, 27582.16, 39114.99, 28789.83, 25723.57, 21264.67, 12840.88, 17371.31, 0.000, 0.000, 0.000, 14:11:22.423, 1560510682423
205, 16182.35, 27618.24, 39196.06, 28760.12, 25856.07, 21263.06, 13002.90, 17337.22, 0.000, 0.000, 0.000, 14:11:22.423, 1560510682423
206, 16061.83, 27641.80, 39285.47, 28679.92, 26031.18, 21200.27, 13173.60, 17221.84, 0.008, 0.052, -1.038, 14:11:22.423, 1560510682423
207, 16045.22, 27577.92, 39140.90, 28660.59, 25902.45, 21143.83, 12970.85, 17220.72, 0.000, 0.000, 0.000, 14:11:22.423, 1560510682423
208, 16181.57, 27539.90, 39013.38, 28765.22, 25658.97, 21207.58, 12720.80, 17357.96, 0.000, 0.000, 0.000, 14:11:22.423, 1560510682423
209, 16222.29, 27589.21, 39111.75, 28805.63, 25720.80, 21269.56, 12853.37, 17391.91, 0.000, 0.000, 0.000, 14:11:22.423, 1560510682423
210, 16181.72, 27623.00, 39195.88, 28774.14, 25852.96, 21262.72, 13003.26, 17345.13, 0.000, 0.000, 0.000, 14:11:22.423, 1560510682423
211, 16065.65, 27649.84, 39277.07, 28675.48, 26041.66, 21203.11, 13175.46, 17235.29, 0.000, 0.000, 0.000, 14:11:22.423, 1560510682423
212, 16044.28, 27584.78, 39144.86, 28652.72, 25915.42, 21147.32, 12971.25, 17231.21, 0.000, 0.000, 0.000, 14:11:22.424, 1560510682424
213, 16191.56, 27552.97, 39022.48, 28773.64, 25674.40, 21218.38, 12722.88, 17367.46, 0.000, 0.000, 0.000, 14:11:22.424, 1560510682424
214, 16228.91, 27589.92, 39114.08, 28808.85, 25729.58, 21273.25, 12851.05, 17397.37, 0.000, 0.000, 0.000, 14:11:22.424, 1560510682424
215, 16194.44, 27631.61, 39207.51, 28766.09, 25855.67, 21271.04, 13007.53, 17356.91, 0.000, 0.000, 0.000, 14:11:22.424, 1560510682424
216, 16083.44, 27651.54, 39300.09, 28669.53, 26038.42, 21208.72, 13178.99, 17236.86, 0.012, 0.046, -1.040, 14:11:22.424, 1560510682424
217, 16059.30, 27579.46, 39154.98, 28646.31, 25914.30, 21154.49, 12975.46, 17227.92, 0.000, 0.000, 0.000, 14:11:22.424, 1560510682424
218, 16198.51, 27545.53, 39021.63, 28764.71, 25672.52, 21220.83, 12713.52, 17359.26, 0.000, 0.000, 0.000, 14:11:22.424, 1560510682424
219, 16229.33, 27594.95, 39106.14, 28798.52, 25731.93, 21276.09, 12838.37, 17387.80, 0.000, 0.000, 0.000, 14:11:22.425, 1560510682425
220, 16180.23, 27614.39, 39191.55, 28759.83, 25859.67, 21268.64, 12993.09, 17347.63, 0.000, 0.000, 0.000, 14:11:22.425, 1560510682425
221, 16069.74, 27635.03, 39269.78, 28665.51, 26037.37, 21208.38, 13166.47, 17230.87, 0.000, 0.000, 0.000, 14:11:22.425, 1560510682425
222, 16046.00, 27571.61, 39158.33, 28637.39, 25913.58, 21148.86, 12965.49, 17218.84, 0.000, 0.000, 0.000, 14:11:22.425, 1560510682425
223, 16177.32, 27536.59, 39024.18, 28740.30, 25658.15, 21209.26, 12696.35, 17345.80, 0.000, 0.000, 0.000, 14:11:22.425, 1560510682425
224, 16224.59, 27589.12, 39099.30, 28786.83, 25714.27, 21274.05, 12821.76, 17381.45, 0.000, 0.000, 0.000, 14:11:22.891, 1560510682891
225, 16190.55, 27620.05, 39203.08, 28767.01, 25846.86, 21272.00, 12983.88, 17344.04, 0.000, 0.000, 0.000, 14:11:22.892, 1560510682892
226, 16076.31, 27640.59, 39279.30, 28658.22, 26023.89, 21205.19, 13155.97, 17222.96, 0.006, 0.048, -1.040, 14:11:22.892, 1560510682892
227, 16044.89, 27575.10, 39149.10, 28633.23, 25902.59, 21145.67, 12965.42, 17215.18, 0.000, 0.000, 0.000, 14:11:22.892, 1560510682892
228, 16163.28, 27529.44, 39015.53, 28737.50, 25640.04, 21191.11, 12688.15, 17331.90, 0.000, 0.000, 0.000, 14:11:22.892, 1560510682892
229, 16209.69, 27570.67, 39090.70, 28764.04, 25693.02, 21244.35, 12807.66, 17360.53, 0.000, 0.000, 0.000, 14:11:22.892, 1560510682892
230, 16172.40, 27602.12, 39164.93, 28734.89, 25825.45, 21242.38, 12965.87, 17324.39, 0.000, 0.000, 0.000, 14:11:22.892, 1560510682892
231, 16064.27, 27626.29, 39248.12, 28647.69, 26013.12, 21187.75, 13150.42, 17218.13, 0.000, 0.000, 0.000, 14:11:22.892, 1560510682892
232, 16028.19, 27563.12, 39122.59, 28625.19, 25891.79, 21124.32, 12954.56, 17202.19, 0.000, 0.000, 0.000, 14:11:22.892, 1560510682892
233, 16157.99, 27528.01, 38994.72, 28728.65, 25636.02, 21178.75, 12687.57, 17333.49, 0.000, 0.000, 0.000, 14:11:22.892, 1560510682892
234, 16212.52, 27576.78, 39090.41, 28764.91, 25692.57, 21241.13, 12808.06, 17372.74, 0.000, 0.000, 0.000, 14:11:22.892, 1560510682892
235, 16177.14, 27607.71, 39176.62, 28735.80, 25816.71, 21239.14, 12960.93, 17331.38, 0.000, 0.000, 0.000, 14:11:22.892, 1560510682892
236, 16063.33, 27629.17, 39250.20, 28640.88, 25995.23, 21180.96, 13138.00, 17215.67, 0.008, 0.052, -1.036, 14:11:22.893, 1560510682893
237, 16035.54, 27571.41, 39122.70, 28614.39, 25888.13, 21126.02, 12952.75, 17205.81, 0.000, 0.000, 0.000, 14:11:22.894, 1560510682894
238, 16162.57, 27531.78, 38990.54, 28727.20, 25631.73, 21184.92, 12676.77, 17331.47, 0.000, 0.000, 0.000, 14:11:22.895, 1560510682895
239, 16214.67, 27572.78, 39085.87, 28770.05, 25674.73, 21247.88, 12794.18, 17363.64, 0.000, 0.000, 0.000, 14:11:22.895, 1560510682895
240, 16194.73, 27614.95, 39190.95, 28750.02, 25815.46, 21251.37, 12958.96, 17329.69, 0.000, 0.000, 0.000, 14:11:22.895, 1560510682895
241, 16078.21, 27639.59, 39257.91, 28654.44, 25998.34, 21194.79, 13138.15, 17216.39, 0.000, 0.000, 0.000, 14:11:22.895, 1560510682895
242, 16048.64, 27583.53, 39133.52, 28632.94, 25896.06, 21143.03, 12962.56, 17214.62, 0.000, 0.000, 0.000, 14:11:22.895, 1560510682895
243, 16181.48, 27546.83, 39001.16, 28747.85, 25639.44, 21204.85, 12696.13, 17352.75, 0.000, 0.000, 0.000, 14:11:22.895, 1560510682895
244, 16240.82, 27596.76, 39102.39, 28795.55, 25692.68, 21274.48, 12820.22, 17405.64, 0.000, 0.000, 0.000, 14:11:22.895, 1560510682895
245, 16200.23, 27630.42, 39212.78, 28759.52, 25809.20, 21263.84, 12965.78, 17365.36, 0.000, 0.000, 0.000, 14:11:22.895, 1560510682895
246, 16082.17, 27655.25, 39267.81, 28666.04, 25996.53, 21210.58, 13142.07, 17258.88, 0.006, 0.052, -1.038, 14:11:22.895, 1560510682895
247, 16045.62, 27590.03, 39137.41, 28640.05, 25892.88, 21148.44, 12961.60, 17249.27, 0.000, 0.000, 0.000, 14:11:22.895, 1560510682895
248, 16187.07, 27561.94, 39025.07, 28753.37, 25650.28, 21208.36, 12697.09, 17387.20, 0.000, 0.000, 0.000, 14:11:22.896, 1560510682896
249, 16235.99, 27616.12, 39111.06, 28790.97, 25700.62, 21271.44, 12811.44, 17422.98, 0.000, 0.000, 0.000, 14:11:22.896, 1560510682896
250, 16209.40, 27652.97, 39181.51, 28760.73, 25827.98, 21271.91, 12965.82, 17385.95, 0.000, 0.000, 0.000, 14:11:22.896, 1560510682896
251, 16097.70, 27651.41, 39264.84, 28668.59, 26005.20, 21213.39, 13142.49, 17272.67, 0.000, 0.000, 0.000, 14:11:22.896, 1560510682896
252, 16055.64, 27578.30, 39133.28, 28640.27, 25904.91, 21151.92, 12970.99, 17257.54, 0.000, 0.000, 0.000, 14:11:22.896, 1560510682896
253, 16177.83, 27540.23, 39001.85, 28743.58, 25643.64, 21200.92, 12692.28, 17381.99, 0.000, 0.000, 0.000, 14:11:22.896, 1560510682896
254, 16241.85, 27585.67, 39086.79, 28786.79, 25688.61, 21261.54, 12808.71, 17419.81, 0.000, 0.000, 0.000, 14:11:22.896, 1560510682896
255, 16210.89, 27621.37, 39172.64, 28757.22, 25816.85, 21262.68, 12964.39, 17385.16, 0.000, 0.000, 0.000, 14:11:22.901, 1560510682901
0, 16103.25, 27658.52, 39262.71, 28675.23, 26005.81, 21212.68, 13150.60, 17279.93, 0.010, 0.054, -1.044, 14:11:22.901, 1560510682901
1, 16054.94, 27597.21, 39140.21, 28639.09, 25899.10, 21145.13, 12970.56, 17255.81, 0.000, 0.000, 0.000, 14:11:22.901, 1560510682901
2, 16179.78, 27554.74, 39006.72, 28748.61, 25641.63, 21200.36, 12695.63, 17384.72, 0.000, 0.000, 0.000, 14:11:22.902, 1560510682902
3, 16237.60, 27598.30, 39107.53, 28796.71, 25692.44, 21266.97, 12815.57, 17426.45, 0.000, 0.000, 0.000, 14:11:22.902, 1560510682902
4, 16199.16, 27630.62, 39173.75, 28751.47, 25816.38, 21262.86, 12969.33, 17384.63, 0.000, 0.000, 0.000, 14:11:22.902, 1560510682902
5, 16088.52, 27641.11, 39247.02, 28660.86, 25996.35, 21206.75, 13147.97, 17269.31, 0.000, 0.000, 0.000, 14:11:22.902, 1560510682902
6, 16052.67, 27569.24, 39147.05, 28630.97, 25897.20, 21144.06, 12969.51, 17241.76, 0.000, 0.000, 0.000, 14:11:22.902, 1560510682902
7, 16179.73, 27527.80, 39001.67, 28732.18, 25630.16, 21197.37, 12681.31, 17362.77, 0.000, 0.000, 0.000, 14:11:22.902, 1560510682902
8, 16230.25, 27574.77, 39080.30, 28775.14, 25668.43, 21263.62, 12791.90, 17404.65, 0.000, 0.000, 0.000, 14:11:22.903, 1560510682903
9, 16197.42, 27602.41, 39168.41, 28746.98, 25790.36, 21263.19, 12944.95, 17365.47, 0.000, 0.000, 0.000, 14:11:22.903, 1560510682903
10, 16094.75, 27635.72, 39256.10, 28666.00, 25986.09, 21214.29, 13129.66, 17257.80, 0.008, 0.054, -1.044, 14:11:22.903, 1560510682903
11, 16046.41, 27583.37, 39137.10, 28627.24, 25892.21, 21148.57, 12962.20, 17234.07, 0.000, 0.000, 0.000, 14:11:22.903, 1560510682903
12, 16169.32, 27544.90, 38987.63, 28723.85, 25616.98, 21202.06, 12676.43, 17356.13, 0.000, 0.000, 0.000, 14:11:22.903, 1560510682903
13, 16222.49, 27586.90, 39097.69, 28771.99, 25663.09, 21265.49, 12782.47, 17396.56, 0.000, 0.000, 0.000, 14:11:22.903, 1560510682903
14, 16193.97, 27619.22, 39174.63, 28751.18, 25806.29, 21268.62, 12940.56, 17368.36, 0.000, 0.000, 0.000, 14:11:22.903, 1560510682903
15, 16087.80, 27631.85, 39245.01, 28665.29, 25989.40, 21213.35, 13122.66, 17257.69, 0.000, 0.000, 0.000, 14:11:22.903, 1560510682903
16, 16045.29, 27564.26, 39128.65, 28629.21, 25893.87, 21152.75, 12958.18, 17238.58, 0.000, 0.000, 0.000, 14:11:22.903, 1560510682903
17, 16168.25, 27516.99, 38986.00, 28731.74, 25628.58, 21199.82, 12668.72, 17363.15, 0.000, 0.000, 0.000, 14:11:22.903, 1560510682903
18, 16222.43, 27562.85, 39081.13, 28780.51, 25661.95, 21257.69, 12773.69, 17403.47, 0.000, 0.000, 0.000, 14:11:22.903, 1560510682903
19, 16186.44, 27600.47, 39164.73, 28750.38, 25785.06, 21258.56, 12935.58, 17371.35, 0.000, 0.000, 0.000, 14:11:22.903, 1560510682903
20, 16084.14, 27627.78, 39244.36, 28668.30, 25970.56, 21203.33, 13114.55, 17259.77, 0.008, 0.058, -1.042, 14:11:22.904, 1560510682904
21, 16042.47, 27567.08, 39136.29, 28625.99, 25879.21, 21134.58, 12948.34, 17229.37, 0.000, 0.000, 0.000, 14:11:22.904, 1560510682904
22, 16171.75, 27526.53, 38987.01, 28727.33, 25607.57, 21184.33, 12659.54, 17351.84, 0.000, 0.000, 0.000, 14:11:22.904, 1560510682904
23, 16218.72, 27565.82, 39059.74, 28765.13, 25636.38, 21239.72, 12760.50, 17385.39, 0.000, 0.000, 0.000, 14:11:22.904, 1560510682904
24, 16181.23, 27593.54, 39141.88, 28732.63, 25759.24, 21235.27, 12912.13, 17349.92, 0.000, 0.000, 0.000, 14:11:22.904, 1560510682904
25, 16069.61, 27617.05, 39229.03, 28648.30, 25948.43, 21186.90, 13100.42, 17248.91, 0.000, 0.000, 0.000, 14:11:22.904, 1560510682904
26, 16018.76, 27551.14, 39117.34, 28610.54, 25867.09, 21125.06, 12944.97, 17229.75, 0.000, 0.000, 0.000, 14:11:22.904, 1560510682904
27, 16143.64, 27500.49, 38971.72, 28711.31, 25600.66, 21176.40, 12657.37, 17359.95, 0.000, 0.000, 0.000, 14:11:22.904, 1560510682904
28, 16189.90, 27529.50, 39041.63, 28752.12, 25628.91, 21237.98, 12758.93, 17402.26, 0.000, 0.000, 0.000, 14:11:22.904, 1560510682904
29, 16153.11, 27558.36, 39133.01, 28734.44, 25764.21, 21250.56, 12921.36, 17376.71, 0.000, 0.000, 0.000, 14:11:22.904, 1560510682904
30, 16031.70, 27571.68, 39221.52, 28644.16, 25948.79, 21195.82, 13102.64, 17263.21, 0.004, 0.056, -1.038, 14:11:22.904, 1560510682904
31, 15976.15, 27496.09, 39110.16, 28598.74, 25867.88, 21128.95, 12950.78, 17238.16, 0.000, 0.000, 0.000, 14:11:22.904, 1560510682904
32, 16084.16, 27426.69, 38956.61, 28694.70, 25601.08, 21179.64, 12664.95, 17363.26, 0.000, 0.000, 0.000, 14:11:22.904, 1560510682904
33, 16122.71, 27445.77, 39027.75, 28732.34, 25633.83, 21242.63, 12768.14, 17401.91, 0.000, 0.000, 0.000, 14:11:22.904, 1560510682904
34, 16076.51, 27456.23, 39109.58, 28694.90, 25758.11, 21240.84, 12916.42, 17364.04, 0.000, 0.000, 0.000, 14:11:22.905, 1560510682905
35, 15951.75, 27475.23, 39197.98, 28609.18, 25944.79, 21191.71, 13096.29, 17254.34, 0.000, 0.000, 0.000, 14:11:22.905, 1560510682905
36, 15878.70, 27399.19, 39079.99, 28561.68, 25864.61, 21122.49, 12948.23, 17227.23, 0.000, 0.000, 0.000, 14:11:22.905, 1560510682905
37, 15989.36, 27341.17, 38923.30, 28657.93, 25595.43, 21172.67, 12662.02, 17357.13, 0.000, 0.000, 0.000, 14:11:22.905, 1560510682905
38, 16031.79, 27363.03, 38993.31, 28697.00, 25626.52, 21236.48, 12767.94, 17402.75, 0.000, 0.000, 0.000, 14:11:22.905, 1560510682905
39, 15994.66, 27382.16, 39082.23, 28664.86, 25754.06, 21234.76, 12921.16, 17366.88, 0.006, 0.058, -1.034, 14:11:22.905, 1560510682905
40, 15875.33, 27384.93, 39165.91, 28571.52, 25930.24, 21171.88, 13091.15, 17248.59, 0.000, 0.000, 0.000, 14:11:22.905, 1560510682905
41, 15817.75, 27329.46, 39060.10, 28536.11, 25856.12, 21108.12, 12945.30, 17221.04, 0.000, 0.000, 0.000, 14:11:22.905, 1560510682905
42, 15930.51, 27269.71, 38916.55, 28625.34, 25589.10, 21155.28, 12660.38, 17350.83, 0.000, 0.000, 0.000, 14:11:22.905, 1560510682905
43, 15990.17, 27307.04, 38987.68, 28678.92, 25615.28, 21219.47, 12763.85, 17400.99, 0.000, 0.000, 0.000, 14:11:22.905, 1560510682905
44, 15953.58, 27326.33, 39062.76, 28644.01, 25739.35, 21214.26, 12914.35, 17364.35, 0.000, 0.000, 0.000, 14:11:22.905, 1560510682905
45, 15853.56, 27361.91, 39163.92, 28565.62, 25933.99, 21176.58, 13110.17, 17268.46, 0.000, 0.000, 0.000, 14:11:22.905, 1560510682905
46, 15806.35, 27320.16, 39080.70, 28535.09, 25863.38, 21117.26, 12964.32, 17238.38, 0.000, 0.000, 0.000, 14:11:22.905, 1560510682905
47, 15932.88, 27266.78, 38939.15, 28627.62, 25590.58, 21163.55, 12665.62, 17363.46, 0.000, 0.000, 0.000, 14:11:22.905, 1560510682905
48, 15999.24, 27296.73, 39005.85, 28677.33, 25621.51, 21228.17, 12772.30, 17418.13, 0.000, 0.000, 0.000, 14:11:22.905, 1560510682905
49, 15970.81, 27324.60, 39093.22, 28642.33, 25744.36, 21220.54, 12920.20, 17377.18, 0.010, 0.054, -1.038, 14:11:22.905, 1560510682905
50, 15868.64, 27369.80, 39187.95, 28556.10, 25924.83, 21161.45, 13097.54, 17263.91, 0.000, 0.000, 0.000, 14:11:22.905, 1560510682905
51, 15816.56, 27310.57, 39066.91, 28510.39, 25850.55, 21097.79, 12954.31, 17231.94, 0.000, 0.000, 0.000, 14:11:22.905, 1560510682905
52, 15947.83, 27249.03, 38893.89, 28602.28, 25573.10, 21142.56, 12647.71, 17349.85, 0.000, 0.000, 0.000, 14:11:22.905, 1560510682905
53, 16015.72, 27289.27, 38995.07, 28664.14, 25607.12, 21211.83, 12745.43, 17401.48, 0.000, 0.000, 0.000, 14:11:22.905, 1560510682905
54, 15992.02, 27344.88, 39076.05, 28653.64, 25739.35, 21216.07, 12904.00, 17370.66, 0.000, 0.000, 0.000, 14:11:22.905, 1560510682905
55, 15898.42, 27378.72, 39181.51, 28563.18, 25928.40, 21173.20, 13096.42, 17267.35, 0.000, 0.000, 0.000, 14:11:22.905, 1560510682905
56, 15853.76, 27329.59, 39105.20, 28519.57, 25864.63, 21109.52, 12961.80, 17233.11, 0.000, 0.000, 0.000, 14:11:22.906, 1560510682906
57, 15998.10, 27298.99, 38964.59, 28644.59, 25601.78, 21162.16, 12666.08, 17363.01, 0.000, 0.000, 0.000, 14:11:22.906, 1560510682906
58, 16078.55, 27351.00, 39040.52, 28704.15, 25621.80, 21233.82, 12767.41, 17413.28, 0.000, 0.000, 0.000, 14:11:22.906, 1560510682906
59, 16061.61, 27387.48, 39124.58, 28680.28, 25750.30, 21233.06, 12922.73, 17377.21, 0.016, 0.056, -1.044, 14:11:22.906, 1560510682906
60, 15969.49, 27428.07, 39217.79, 28597.07, 25934.71, 21181.50, 13102.91, 17266.12, 0.000, 0.000, 0.000, 14:11:22.906, 1560510682906
61, 15923.94, 27394.21, 39117.52, 28553.37, 25865.21, 21116.63, 12961.17, 17228.54, 0.000, 0.000, 0.000, 14:11:22.906, 1560510682906
62, 16059.42, 27358.85, 38981.78, 28660.50, 25600.86, 21173.49, 12670.82, 17366.28, 0.000, 0.000, 0.000, 14:11:22.906, 1560510682906
63, 16144.73, 27418.35, 39057.73, 28717.79, 25617.87, 21240.10, 12759.65, 17419.07, 0.000, 0.000, 0.000, 14:11:22.906, 1560510682906
64, 16142.59, 27468.26, 39154.91, 28701.45, 25751.71, 21248.78, 12922.79, 17392.36, 0.000, 0.000, 0.000, 14:11:22.906, 1560510682906
65, 16041.91, 27501.34, 39254.31, 28632.99, 25942.02, 21205.39, 13114.28, 17288.13, 0.000, 0.000, 0.000, 14:11:22.906, 1560510682906
66, 15989.88, 27443.29, 39145.48, 28585.85, 25880.44, 21137.04, 12979.75, 17251.10, 0.000, 0.000, 0.000, 14:11:22.906, 1560510682906
67, 16130.05, 27402.19, 38995.90, 28673.49, 25608.79, 21182.86, 12673.62, 17373.05, 0.000, 0.000, 0.000, 14:11:22.906, 1560510682906
68, 16215.61, 27478.18, 39081.96, 28743.58, 25637.07, 21264.71, 12766.80, 17433.44, 0.000, 0.000, 0.000, 14:11:22.906, 1560510682906
69, 16184.88, 27528.50, 39180.46, 28727.02, 25770.91, 21277.38, 12929.21, 17411.85, 0.010, 0.054, -1.040, 14:11:22.906, 1560510682906
70, 16083.85, 27547.38, 39289.07, 28646.91, 25959.45, 21228.57, 13111.04, 17303.78, 0.000, 0.000, 0.000, 14:11:22.906, 1560510682906
71, 16032.75, 27503.13, 39182.72, 28589.69, 25891.43, 21147.83, 12960.39, 17247.90, 0.000, 0.000, 0.000, 14:11:22.907, 1560510682907
72, 16173.14, 27471.43, 39047.54, 28697.61, 25621.80, 21195.91, 12658.64, 17374.70, 0.000, 0.000, 0.000, 14:11:22.907, 1560510682907
73, 16247.59, 27520.88, 39103.41, 28754.31, 25644.07, 21270.43, 12753.50, 17436.77, 0.000, 0.000, 0.000, 14:11:22.907, 1560510682907
74, 16215.77, 27548.28, 39168.95, 28721.72, 25760.85, 21264.33, 12908.06, 17403.63, 0.000, 0.000, 0.000, 14:11:22.907, 1560510682907
75, 16112.92, 27570.12, 39255.83, 28636.52, 25935.29, 21207.42, 13090.37, 17291.69, 0.000, 0.000, 0.000, 14:11:22.907, 1560510682907
76, 16052.67, 27520.45, 39160.50, 28590.58, 25877.37, 21133.08, 12964.59, 17251.14, 0.000, 0.000, 0.000, 14:11:22.907, 1560510682907
77, 16179.04, 27479.64, 39010.07, 28697.87, 25610.09, 21174.88, 12666.76, 17381.14, 0.000, 0.000, 0.000, 14:11:22.907, 1560510682907
78, 16262.12, 27521.21, 39088.35, 28748.41, 25629.27, 21242.56, 12758.44, 17437.56, 0.000, 0.000, 0.000, 14:11:22.907, 1560510682907
79, 16254.70, 27551.56, 39177.20, 28724.70, 25749.03, 21245.91, 12916.31, 17412.12, 0.006, 0.060, -1.042, 14:11:22.907, 1560510682907
80, 16155.26, 27588.31, 39280.48, 28649.21, 25933.41, 21200.18, 13108.54, 17313.62, 0.000, 0.000, 0.000, 14:11:22.907, 1560510682907
81, 16092.61, 27544.23, 39195.01, 28600.40, 25885.64, 21135.00, 12989.16, 17276.67, 0.000, 0.000, 0.000, 14:11:22.907, 1560510682907
82, 16212.61, 27501.16, 39032.47, 28705.34, 25612.82, 21180.45, 12677.91, 17397.50, 0.000, 0.000, 0.000, 14:11:22.907, 1560510682907
83, 16291.76, 27548.70, 39116.45, 28772.37, 25630.43, 21259.68, 12761.08, 17453.72, 0.000, 0.000, 0.000, 14:11:22.907, 1560510682907
84, 16268.60, 27581.09, 39204.38, 28748.61, 25757.63, 21267.13, 12918.79, 17418.38, 0.000, 0.000, 0.000, 14:11:22.907, 1560510682907
85, 16178.21, 27620.27, 39302.19, 28670.94, 25952.92, 21228.26, 13115.29, 17318.89, 0.000, 0.000, 0.000, 14:11:22.907, 1560510682907
86, 16123.18, 27577.94, 39206.48, 28614.86, 25903.46, 21159.90, 12992.24, 17267.68, 0.000, 0.000, 0.000, 14:11:22.907, 1560510682907
87, 16223.41, 27520.94, 39031.09, 28718.84, 25624.93, 21198.64, 12671.96, 17375.82, 0.000, 0.000, 0.000, 14:11:22.907, 1560510682907
88, 16299.63, 27561.29, 39108.09, 28805.43, 25649.81, 21287.87, 12762.53, 17440.35, 0.000, 0.000, 0.000, 14:11:22.907, 1560510682907
89, 16281.10, 27605.90, 39206.61, 28785.94, 25781.31, 21300.38, 12925.52, 17407.94, 0.008, 0.048, -1.036, 14:11:23.371, 1560510683371
90, 16185.25, 27637.53, 39311.00, 28693.89, 25967.41, 21253.69, 13107.91, 17294.79, 0.000, 0.000, 0.000, 14:11:23.371, 1560510683371
91, 16122.69, 27581.54, 39232.07, 28633.61, 25914.57, 21178.19, 12980.02, 17236.68, 0.000, 0.000, 0.000, 14:11:23.372, 1560510683372
92, 16257.85, 27532.65, 39073.30, 28731.00, 25631.95, 21220.92, 12668.30, 17358.99, 0.000, 0.000, 0.000, 14:11:23.372, 1560510683372
93, 16326.67, 27570.25, 39132.72, 28789.13, 25634.32, 21291.85, 12747.83, 17413.97, 0.000, 0.000, 0.000, 14:11:23.372, 1560510683372
94, 16291.40, 27609.90, 39216.65, 28761.96, 25759.78, 21292.52, 12901.38, 17381.99, 0.000, 0.000, 0.000, 14:11:23.372, 1560510683372
95, 16186.60, 27645.64, 39294.01, 28684.84, 25949.10, 21245.42, 13088.44, 17279.82, 0.000, 0.000, 0.000, 14:11:23.372, 1560510683372
96, 16113.86, 27593.16, 39196.49, 28619.75, 25900.40, 21165.69, 12965.06, 17227.76, 0.000, 0.000, 0.000, 14:11:23.372, 1560510683372
97, 16242.54, 27542.45, 39050.11, 28718.59, 25621.80, 21205.68, 12653.41, 17354.14, 0.000, 0.000, 0.000, 14:11:23.372, 1560510683372
98, 16325.87, 27586.21, 39130.17, 28781.02, 25626.86, 21276.94, 12735.64, 17419.92, 0.000, 0.000, 0.000, 14:11:23.372, 1560510683372
99, 16297.17, 27620.47, 39202.34, 28751.56, 25750.95, 21280.94, 12896.35, 17398.60, 0.008, 0.050, -1.040, 14:11:23.372, 1560510683372
100, 16187.07, 27638.47, 39275.32, 28671.03, 25928.47, 21225.06, 13075.01, 17287.87, 0.000, 0.000, 0.000, 14:11:23.372, 1560510683372
101, 16118.98, 27589.00, 39200.91, 28615.55, 25884.93, 21154.16, 12957.06, 17234.09, 0.000, 0.000, 0.000, 14:11:23.372, 1560510683372
102, 16249.76, 27538.00, 39060.63, 28705.09, 25603.12, 21191.78, 12647.60, 17357.11, 0.000, 0.000, 0.000, 14:11:23.373, 1560510683373
103, 16332.15, 27574.27, 39119.48, 28772.55, 25607.32, 21263.97, 12724.27, 17419.59, 0.000, 0.000, 0.000, 14:11:23.373, 1560510683373
104, 16301.80, 27615.49, 39211.64, 28756.32, 25744.16, 21279.82, 12889.07, 17399.67, 0.000, 0.000, 0.000, 14:11:23.373, 1560510683373
105, 16199.65, 27660.39, 39304.71, 28682.74, 25928.56, 21236.95, 13084.93, 17299.15, 0.000, 0.000, 0.000, 14:11:23.373, 1560510683373
106, 16146.56, 27637.48, 39212.60, 28630.06, 25892.21, 21168.06, 12985.22, 17253.00, 0.000, 0.000, 0.000, 14:11:23.373, 1560510683373
107, 16266.79, 27581.63, 39042.19, 28723.26, 25619.81, 21210.13, 12672.12, 17376.27, 0.000, 0.000, 0.000, 14:11:23.373, 1560510683373
108, 16351.22, 27618.40, 39122.86, 28798.28, 25638.43, 21292.34, 12751.56, 17442.61, 0.000, 0.000, 0.000, 14:11:23.373, 1560510683373
109, 16323.75, 27649.11, 39208.40, 28779.05, 25760.38, 21297.43, 12909.56, 17412.61, 0.006, 0.052, -1.040, 14:11:23.373, 1560510683373
110, 16217.35, 27669.42, 39308.25, 28683.70, 25933.63, 21243.30, 13089.78, 17301.59, 0.000, 0.000, 0.000, 14:11:23.373, 1560510683373
111, 16148.15, 27613.77, 39233.43, 28620.98, 25894.58, 21162.34, 12980.24, 17244.53, 0.000, 0.000, 0.000, 14:11:23.373, 1560510683373
112, 16277.46, 27569.22, 39057.44, 28729.68, 25620.42, 21207.98, 12673.33, 17374.86, 0.000, 0.000, 0.000, 14:11:23.373, 1560510683373
113, 16347.60, 27609.03, 39132.23, 28808.29, 25629.94, 21290.66, 12750.91, 17440.71, 0.000, 0.000, 0.000, 14:11:23.373, 1560510683373
114, 16311.36, 27634.36, 39212.34, 28762.29, 25745.54, 21291.42, 12900.20, 17399.69, 0.000, 0.000, 0.000, 14:11:23.373, 1560510683373
115, 16218.34, 27672.69, 39300.80, 28686.14, 25932.98, 21248.42, 13091.37, 17298.48, 0.000, 0.000, 0.000, 14:11:23.373, 1560510683373
116, 16158.05, 27632.25, 39235.25, 28641.26, 25905.74, 21178.59, 12995.04, 17252.04, 0.000, 0.000, 0.000, 14:11:23.373, 1560510683373
117, 16277.17, 27572.15, 39074.89, 28730.48, 25628.38, 21212.41, 12666.84, 17366.79, 0.000, 0.000, 0.000, 14:11:23.373, 1560510683373
118, 16355.46, 27608.27, 39127.82, 28787.73, 25621.94, 21283.71, 12724.62, 17422.20, 0.000, 0.000, 0.000, 14:11:23.373, 1560510683373
119, 16333.85, 27650.36, 39212.89, 28767.65, 25745.21, 21291.89, 12886.38, 17395.15, 0.008, 0.052, -1.040, 14:11:23.374, 1560510683374
120, 16239.19, 27686.75, 39318.08, 28688.75, 25927.64, 21245.78, 13070.85, 17286.12, 0.000, 0.000, 0.000, 14:11:23.374, 1560510683374
121, 16149.76, 27631.76, 39224.32, 28629.10, 25888.15, 21163.86, 12963.54, 17223.94, 0.000, 0.000, 0.000, 14:11:23.374, 1560510683374
122, 16269.83, 27564.48, 39058.53, 28717.72, 25610.74, 21199.64, 12651.51, 17350.21, 0.000, 0.000, 0.000, 14:11:23.374, 1560510683374
123, 16362.79, 27603.26, 39130.84, 28776.75, 25605.69, 21275.46, 12713.02, 17412.77, 0.000, 0.000, 0.000, 14:11:23.374, 1560510683374
124, 16346.72, 27654.20, 39218.13, 28762.69, 25729.23, 21286.41, 12874.49, 17387.11, 0.000, 0.000, 0.000, 14:11:23.374, 1560510683374
125, 16257.03, 27690.68, 39330.87, 28693.40, 25920.36, 21249.96, 13077.13, 17296.29, 0.000, 0.000, 0.000, 14:11:23.374, 1560510683374
126, 16198.67, 27639.14, 39254.69, 28633.19, 25898.09, 21172.94, 12982.59, 17245.55, 0.000, 0.000, 0.000, 14:11:23.374, 1560510683374
127, 16327.86, 27586.63, 39076.46, 28712.20, 25610.38, 21198.55, 12661.66, 17363.24, 0.000, 0.000, 0.000, 14:11:23.374, 1560510683374
128, 16404.82, 27621.41, 39113.18, 28773.96, 25596.26, 21266.70, 12716.80, 17422.85, 0.000, 0.000, 0.000, 14:11:23.374, 1560510683374
129, 16357.18, 27659.17, 39209.38, 28754.42, 25718.54, 21272.18, 12874.96, 17398.96, 0.012, 0.048, -1.042, 14:11:23.374, 1560510683374
130, 16254.79, 27709.75, 39316.52, 28677.78, 25908.98, 21232.12, 13067.68, 17305.57, 0.000, 0.000, 0.000, 14:11:23.374, 1560510683374
131, 16188.92, 27656.17, 39254.54, 28619.91, 25889.35, 21162.47, 12985.38, 17261.69, 0.000, 0.000, 0.000, 14:11:23.374, 1560510683374
132, 16310.58, 27580.46, 39097.58, 28710.39, 25605.40, 21193.90, 12660.54, 17372.58, 0.000, 0.000, 0.000, 14:11:23.374, 1560510683374
133, 16402.20, 27623.49, 39140.94, 28783.84, 25598.87, 21264.24, 12714.75, 17436.97, 0.000, 0.000, 0.000, 14:11:23.374, 1560510683374
134, 16380.68, 27659.75, 39217.32, 28770.79, 25724.94, 21276.27, 12875.07, 17415.88, 0.000, 0.000, 0.000, 14:11:23.374, 1560510683374
135, 16272.81, 27685.79, 39314.41, 28686.90, 25907.04, 21232.59, 13062.00, 17312.19, 0.000, 0.000, 0.000, 14:11:23.374, 1560510683374
136, 16203.87, 27647.86, 39246.73, 28630.10, 25891.99, 21158.12, 12976.39, 17255.72, 0.000, 0.000, 0.000, 14:11:23.374, 1560510683374
137, 16306.51, 27591.30, 39068.75, 28713.36, 25608.01, 21184.83, 12643.55, 17358.72, 0.000, 0.000, 0.000, 14:11:23.374, 1560510683374
138, 16398.83, 27640.30, 39117.88, 28792.73, 25608.64, 21272.18, 12709.60, 17430.47, 0.000, 0.000, 0.000, 14:11:23.374, 1560510683374
139, 16372.18, 27667.46, 39206.79, 28765.67, 25729.12, 21286.41, 12867.25, 17398.73, 0.014, 0.048, -1.036, 14:11:23.375, 1560510683375
140, 16277.32, 27701.77, 39312.02, 28677.29, 25910.39, 21239.23, 13057.67, 17295.27, 0.000, 0.000, 0.000, 14:11:23.375, 1560510683375
141, 16211.34, 27671.06, 39231.36, 28624.80, 25896.87, 21167.91, 12976.95, 17238.25, 0.000, 0.000, 0.000, 14:11:23.375, 1560510683375
142, 16322.83, 27604.16, 39062.33, 28720.22, 25614.76, 21208.32, 12651.67, 17356.49, 0.000, 0.000, 0.000, 14:11:23.375, 1560510683375
143, 16397.69, 27627.61, 39127.06, 28786.30, 25596.77, 21277.23, 12695.63, 17415.54, 0.000, 0.000, 0.000, 14:11:23.375, 1560510683375
144, 16368.94, 27670.77, 39220.00, 28769.91, 25721.63, 21288.76, 12857.53, 17392.14, 0.000, 0.000, 0.000, 14:11:23.375, 1560510683375
145, 16275.47, 27708.07, 39324.59, 28699.44, 25912.85, 21252.24, 13054.07, 17295.40, 0.000, 0.000, 0.000, 14:11:23.375, 1560510683375
146, 16209.24, 27662.43, 39254.38, 28633.90, 25900.11, 21179.71, 12978.74, 17239.10, 0.000, 0.000, 0.000, 14:11:23.375, 1560510683375
147, 16340.31, 27612.67, 39076.68, 28734.15, 25625.29, 21216.23, 12653.46, 17361.36, 0.000, 0.000, 0.000, 14:11:23.375, 1560510683375
148, 16410.43, 27643.29, 39127.42, 28803.24, 25605.58, 21288.92, 12696.26, 17423.54, 0.016, 0.052, -1.036, 14:11:23.375, 1560510683375
149, 16379.54, 27683.04, 39230.86, 28774.58, 25730.72, 21303.02, 12860.88, 17402.49, 0.000, 0.000, 0.000, 14:11:23.375, 1560510683375
150, 16295.56, 27719.80, 39332.54, 28705.61, 25924.60, 21268.64, 13061.00, 17314.58, 0.000, 0.000, 0.000, 14:11:23.375, 1560510683375
151, 16218.69, 27675.73, 39256.32, 28635.80, 25910.66, 21193.01, 12984.24, 17250.09, 0.000, 0.000, 0.000, 14:11:23.375, 1560510683375
152, 16334.83, 27618.62, 39087.63, 28727.56, 25627.12, 21221.71, 12655.62, 17364.38, 0.000, 0.000, 0.000, 14:11:23.375, 1560510683375
153, 16410.38, 27644.70, 39124.89, 28795.73, 25603.03, 21292.88, 12707.41, 17435.79, 0.000, 0.000, 0.000, 14:11:23.376, 1560510683376
154, 16375.13, 27672.31, 39224.72, 28772.64, 25721.58, 21296.83, 12865.98, 17407.27, 0.000, 0.000, 0.000, 14:11:23.376, 1560510683376
155, 16283.71, 27711.98, 39338.06, 28697.27, 25907.84, 21253.38, 13058.94, 17311.94, 0.000, 0.000, 0.000, 14:11:23.376, 1560510683376
156, 16209.51, 27671.32, 39256.30, 28630.19, 25899.99, 21175.88, 12988.02, 17248.44, 0.000, 0.000, 0.000, 14:11:23.376, 1560510683376
157, 16334.65, 27611.73, 39075.45, 28724.99, 25619.63, 21203.58, 12662.08, 17361.47, 0.000, 0.000, 0.000, 14:11:23.376, 1560510683376
158, 16425.63, 27640.30, 39142.35, 28794.81, 25595.79, 21283.84, 12709.67, 17432.44, 0.012, 0.054, -1.038, 14:11:23.376, 1560510683376
159, 16394.29, 27671.53, 39223.42, 28767.25, 25719.10, 21291.67, 12867.85, 17412.25, 0.000, 0.000, 0.000, 14:11:23.376, 1560510683376
160, 16299.20, 27719.29, 39327.69, 28703.73, 25903.73, 21259.26, 13061.93, 17326.22, 0.000, 0.000, 0.000, 14:11:23.376, 1560510683376
161, 16226.09, 27694.88, 39253.20, 28642.40, 25895.01, 21184.58, 12992.67, 17262.14, 0.000, 0.000, 0.000, 14:11:23.376, 1560510683376
162, 16339.50, 27631.25, 39080.08, 28724.56, 25614.27, 21210.64, 12662.49, 17374.41, 0.000, 0.000, 0.000, 14:11:23.376, 1560510683376
163, 16428.17, 27661.02, 39138.73, 28797.05, 25592.59, 21291.29, 12709.18, 17446.50, 0.000, 0.000, 0.000, 14:11:23.376, 1560510683376
164, 16410.52, 27696.25, 39234.55, 28781.13, 25719.64, 21305.62, 12872.73, 17424.84, 0.000, 0.000, 0.000, 14:11:23.376, 1560510683376
165, 16326.81, 27727.96, 39326.11, 28712.00, 25912.89, 21273.88, 13065.82, 17331.52, 0.000, 0.000, 0.000, 14:11:23.376, 1560510683376
166, 16241.07, 27680.04, 39249.24, 28643.13, 25904.26, 21194.35, 12997.20, 17261.96, 0.000, 0.000, 0.000, 14:11:23.376, 1560510683376
167, 16341.11, 27620.83, 39079.77, 28731.80, 25617.87, 21220.05, 12663.51, 17373.00, 0.000, 0.000, 0.000, 14:11:23.376, 1560510683376
168, 16422.00, 27652.55, 39155.89, 28804.13, 25587.16, 21297.12, 12702.27, 17441.65, 0.012, 0.048, -1.038, 14:11:23.376, 1560510683376
169, 16402.89, 27684.85, 39225.90, 28785.02, 25719.32, 21306.22, 12869.17, 17419.36, 0.000, 0.000, 0.000, 14:11:23.376, 1560510683376
170, 16312.62, 27722.44, 39328.25, 28715.67, 25909.98, 21267.37, 13067.05, 17325.57, 0.000, 0.000, 0.000, 14:11:23.376, 1560510683376
171, 16233.87, 27677.36, 39259.25, 28649.19, 25905.31, 21189.39, 13000.76, 17256.17, 0.000, 0.000, 0.000, 14:11:23.376, 1560510683376
172, 16347.08, 27617.70, 39059.80, 28728.05, 25621.13, 21216.23, 12668.54, 17365.12, 0.000, 0.000, 0.000, 14:11:23.376, 1560510683376
173, 16436.31, 27664.73, 39117.00, 28812.09, 25596.79, 21300.29, 12705.04, 17439.30, 0.000, 0.000, 0.000, 14:11:23.376, 1560510683376
174, 16396.32, 27692.83, 39238.96, 28782.47, 25711.19, 21299.83, 12855.34, 17401.71, 0.000, 0.000, 0.000, 14:11:23.376, 1560510683376
175, 16301.53, 27710.13, 39323.33, 28700.33, 25892.91, 21260.38, 13044.46, 17303.94, 0.000, 0.000, 0.000, 14:11:23.377, 1560510683377
176, 16224.77, 27655.16, 39244.45, 28630.82, 25891.90, 21177.34, 12978.96, 17230.71, 0.000, 0.000, 0.000, 14:11:23.377, 1560510683377
177, 16344.47, 27596.71, 39082.61, 28712.96, 25608.68, 21201.59, 12643.58, 17336.93, 0.000, 0.000, 0.000, 14:11:23.377, 1560510683377
178, 16426.25, 27632.50, 39142.04, 28778.07, 25573.28, 21277.85, 12674.74, 17403.69, 0.012, 0.048, -1.032, 14:11:23.377, 1560510683377
179, 16391.05, 27672.20, 39207.39, 28756.44, 25686.60, 21283.11, 12832.47, 17379.11, 0.000, 0.000, 0.000, 14:11:23.377, 1560510683377
180, 16295.87, 27714.62, 39308.76, 28696.85, 25870.04, 21249.09, 13026.40, 17292.78, 0.000, 0.000, 0.000, 14:11:23.377, 1560510683377
181, 16219.90, 27676.85, 39240.57, 28629.30, 25875.05, 21171.97, 12971.07, 17227.07, 0.000, 0.000, 0.000, 14:11:23.377, 1560510683377
182, 16322.70, 27602.26, 39067.76, 28708.87, 25590.76, 21189.65, 12637.81, 17335.83, 0.000, 0.000, 0.000, 14:11:23.377, 1560510683377
183, 16412.80, 27635.67, 39117.23, 28778.34, 25558.01, 21275.82, 12673.19, 17417.13, 0.000, 0.000, 0.000, 14:11:23.377, 1560510683377
184, 16399.36, 27675.33, 39206.97, 28754.71, 25680.72, 21287.94, 12839.13, 17399.78, 0.000, 0.000, 0.000, 14:11:23.377, 1560510683377
185, 16303.56, 27704.96, 39287.61, 28678.31, 25859.60, 21244.86, 13026.26, 17301.70, 0.000, 0.000, 0.000, 14:11:23.377, 1560510683377
186, 16208.77, 27669.36, 39244.12, 28611.86, 25864.97, 21165.76, 12974.47, 17234.92, 0.000, 0.000, 0.000, 14:11:23.377, 1560510683377
187, 16318.07, 27614.82, 39069.42, 28711.40, 25596.43, 21198.80, 12653.28, 17353.16, 0.000, 0.000, 0.000, 14:11:23.377, 1560510683377
188, 16415.68, 27646.49, 39113.23, 28780.17, 25562.86, 21276.58, 12681.22, 17422.25, 0.006, 0.054, -1.034, 14:11:23.377, 1560510683377
189, 16396.86, 27676.29, 39209.81, 28761.64, 25678.49, 21288.52, 12837.41, 17395.24, 0.000, 0.000, 0.000, 14:11:23.377, 1560510683377
190, 16307.52, 27703.38, 39316.07, 28689.00, 25862.78, 21255.37, 13030.60, 17305.61, 0.000, 0.000, 0.000, 14:11:23.377, 1560510683377
191, 16224.28, 27675.35, 39252.77, 28625.90, 25875.90, 21174.10, 12975.01, 17233.60, 0.000, 0.000, 0.000, 14:11:23.377, 1560510683377
192, 16328.87, 27602.15, 39059.43, 28696.44, 25594.02, 21183.82, 12640.69, 17335.99, 0.000, 0.000, 0.000, 14:11:23.377, 1560510683377
193, 16422.65, 27618.08, 39100.15, 28766.89, 25547.06, 21255.03, 12660.99, 17404.36, 0.000, 0.000, 0.000, 14:11:23.377, 1560510683377
194, 16401.40, 27661.89, 39223.29, 28767.25, 25676.12, 21284.74, 12836.79, 17397.28, 0.000, 0.000, 0.000, 14:11:23.377, 1560510683377
195, 16302.89, 27698.73, 39295.80, 28702.79, 25863.05, 21256.98, 13037.06, 17310.38, 0.000, 0.000, 0.000, 14:11:23.378, 1560510683378
196, 16215.01, 27674.16, 39230.62, 28639.58, 25878.31, 21189.21, 12993.76, 17246.36, 0.000, 0.000, 0.000, 14:11:23.379, 1560510683379
197, 16328.80, 27621.70, 39060.14, 28733.26, 25606.74, 21222.56, 12667.60, 17364.47, 0.000, 0.000, 0.000, 14:11:23.379, 1560510683379
198, 16424.71, 27656.53, 39095.68, 28815.60, 25568.52, 21311.09, 12695.75, 17447.23, 0.008, 0.056, -1.028, 14:11:23.379, 1560510683379
199, 16398.40, 27698.30, 39187.57, 28801.96, 25693.66, 21329.06, 12865.80, 17428.79, 0.000, 0.000, 0.000, 14:11:23.379, 1560510683379
200, 16306.38, 27742.27, 39310.08, 28740.61, 25868.30, 21290.66, 13056.79, 17332.66, 0.000, 0.000, 0.000, 14:11:23.380, 1560510683380
201, 16219.72, 27714.91, 39268.68, 28679.92, 25887.97, 21216.88, 13016.18, 17262.36, 0.000, 0.000, 0.000, 14:11:23.380, 1560510683380
202, 16312.08, 27641.13, 39077.17, 28757.40, 25617.42, 21249.54, 12689.11, 17373.21, 0.000, 0.000, 0.000, 14:11:23.380, 1560510683380
203, 16404.03, 27668.24, 39106.07, 28835.98, 25579.60, 21334.96, 12711.01, 17451.37, 0.000, 0.000, 0.000, 14:11:23.380, 1560510683380
204, 16380.94, 27705.54, 39196.82, 28826.57, 25701.78, 21349.63, 12871.79, 17429.62, 0.000, 0.000, 0.000, 14:11:23.380, 1560510683380
205, 16293.64, 27752.01, 39300.98, 28759.16, 25885.53, 21315.09, 13059.43, 17338.65, 0.000, 0.000, 0.000, 14:11:23.380, 1560510683380
206, 16215.18, 27722.85, 39264.04, 28686.07, 25902.79, 21233.51, 13017.25, 17263.21, 0.000, 0.000, 0.000, 14:11:23.380, 1560510683380
207, 16332.71, 27658.36, 39065.68, 28766.69, 25619.37, 21248.15, 12681.80, 17370.61, 0.000, 0.000, 0.000, 14:11:23.380, 1560510683380
208, 16431.04, 27690.41, 39096.57, 28845.10, 25579.31, 21328.06, 12699.66, 17452.17, 0.008, 0.056, -1.038, 14:11:23.380, 1560510683380
209, 16407.65, 27729.71, 39189.69, 28829.79, 25705.38, 21343.30, 12867.63, 17433.55, 0.000, 0.000, 0.000, 14:11:23.852, 1560510683852
210, 16305.44, 27761.58, 39298.57, 28756.23, 25878.25, 21307.04, 13054.89, 17339.99, 0.000, 0.000, 0.000, 14:11:23.852, 1560510683852
211, 16212.97, 27719.45, 39270.29, 28675.25, 25887.74, 21215.22, 13010.06, 17255.66, 0.000, 0.000, 0.000, 14:11:23.852, 1560510683852
212, 16318.63, 27658.70, 39062.09, 28764.53, 25614.63, 21235.41, 12679.45, 17362.90, 0.000, 0.000, 0.000, 14:11:23.852, 1560510683852
213, 16425.09, 27697.72, 39098.25, 28851.56, 25583.18, 21327.27, 12708.08, 17459.01, 0.000, 0.000, 0.000, 14:11:23.852, 1560510683852
214, 16418.25, 27732.75, 39200.33, 28838.64, 25697.60, 21341.36, 12872.28, 17443.03, 0.000, 0.000, 0.000, 14:11:23.852, 1560510683852
215, 16322.07, 27743.56, 39320.11, 28756.68, 25863.38, 21297.03, 13049.33, 17340.28, 0.000, 0.000, 0.000, 14:11:23.852, 1560510683852
216, 16228.33, 27716.77, 39257.44, 28689.09, 25891.12, 21220.32, 13015.67, 17267.35, 0.000, 0.000, 0.000, 14:11:23.852, 1560510683852
217, 16335.35, 27668.04, 39063.14, 28770.79, 25617.89, 21243.92, 12690.56, 17380.29, 0.000, 0.000, 0.000, 14:11:23.852, 1560510683852
218, 16429.89, 27692.42, 39109.05, 28845.95, 25569.14, 21323.21, 12702.74, 17461.29, 0.010, 0.054, -1.042, 14:11:23.852, 1560510683852
219, 16409.15, 27723.74, 39199.55, 28833.17, 25689.31, 21344.93, 12868.03, 17441.94, 0.000, 0.000, 0.000, 14:11:23.852, 1560510683852
220, 16321.56, 27760.26, 39289.76, 28763.81, 25867.11, 21310.96, 13046.60, 17348.71, 0.000, 0.000, 0.000, 14:11:23.852, 1560510683852
221, 16229.67, 27732.05, 39254.82, 28688.15, 25893.40, 21232.26, 13012.34, 17270.72, 0.000, 0.000, 0.000, 14:11:23.853, 1560510683853
222, 16323.95, 27662.16, 39074.22, 28758.78, 25607.41, 21245.62, 12666.04, 17366.77, 0.000, 0.000, 0.000, 14:11:23.853, 1560510683853
223, 16427.26, 27691.15, 39106.68, 28834.44, 25549.85, 21321.80, 12664.74, 17441.76, 0.000, 0.000, 0.000, 14:11:23.853, 1560510683853
224, 16419.43, 27739.47, 39213.63, 28826.66, 25672.74, 21343.19, 12833.50, 17428.28, 0.000, 0.000, 0.000, 14:11:23.853, 1560510683853
225, 16330.72, 27771.57, 39290.81, 28754.71, 25851.33, 21301.46, 13010.37, 17331.18, 0.000, 0.000, 0.000, 14:11:23.853, 1560510683853
226, 16240.08, 27739.38, 39229.25, 28681.60, 25882.00, 21225.37, 12983.59, 17257.63, 0.000, 0.000, 0.000, 14:11:23.853, 1560510683853
227, 16341.67, 27681.14, 39053.10, 28760.90, 25611.77, 21250.88, 12650.33, 17368.85, 0.000, 0.000, 0.000, 14:11:23.853, 1560510683853
228, 16429.00, 27712.56, 39099.32, 28833.71, 25561.68, 21328.44, 12655.42, 17450.99, 0.004, 0.058, -1.034, 14:11:23.853, 1560510683853
229, 16409.18, 27738.31, 39199.80, 28824.34, 25680.95, 21342.56, 12827.26, 17438.74, 0.000, 0.000, 0.000, 14:11:23.853, 1560510683853
230, 16326.36, 27758.81, 39284.84, 28756.10, 25846.24, 21306.89, 13014.26, 17347.39, 0.000, 0.000, 0.000, 14:11:23.853, 1560510683853
231, 16235.26, 27727.85, 39238.08, 28677.18, 25874.15, 21220.83, 12993.25, 17264.04, 0.000, 0.000, 0.000, 14:11:23.853, 1560510683853
232, 16333.00, 27676.94, 39069.93, 28753.08, 25600.97, 21235.63, 12662.89, 17366.25, 0.000, 0.000, 0.000, 14:11:23.853, 1560510683853
233, 16433.02, 27695.78, 39080.44, 28825.61, 25531.35, 21309.21, 12659.56, 17441.74, 0.000, 0.000, 0.000, 14:11:23.853, 1560510683853
234, 16417.04, 27724.86, 39177.31, 28818.86, 25657.16, 21329.58, 12836.85, 17428.79, 0.000, 0.000, 0.000, 14:11:23.853, 1560510683853
235, 16331.44, 27759.14, 39281.69, 28753.82, 25841.21, 21302.75, 13034.60, 17344.73, 0.000, 0.000, 0.000, 14:11:23.853, 1560510683853
236, 16232.80, 27735.61, 39249.73, 28675.19, 25878.02, 21223.41, 13015.71, 17261.65, 0.000, 0.000, 0.000, 14:11:23.853, 1560510683853
237, 16319.59, 27663.14, 39057.97, 28753.19, 25601.49, 21237.80, 12682.69, 17362.48, 0.000, 0.000, 0.000, 14:11:23.853, 1560510683853
238, 16428.38, 27689.77, 39074.51, 28836.54, 25548.91, 21321.08, 12684.12, 17449.51, 0.002, 0.052, -1.034, 14:11:23.853, 1560510683853
239, 16419.32, 27736.28, 39172.68, 28835.04, 25673.82, 21344.71, 12855.00, 17433.71, 0.000, 0.000, 0.000, 14:11:23.853, 1560510683853
240, 16338.05, 27769.54, 39267.16, 28776.84, 25848.07, 21318.40, 13038.33, 17340.71, 0.000, 0.000, 0.000, 14:11:23.853, 1560510683853
241, 16255.73, 27740.77, 39245.55, 28705.85, 25891.28, 21243.46, 13012.09, 17256.31, 0.000, 0.000, 0.000, 14:11:23.853, 1560510683853
242, 16343.62, 27669.96, 39071.38, 28781.96, 25616.86, 21257.85, 12676.37, 17356.78, 0.000, 0.000, 0.000, 14:11:23.854, 1560510683854
243, 16447.78, 27704.83, 39097.18, 28869.65, 25558.97, 21349.34, 12679.21, 17447.62, 0.000, 0.000, 0.000, 14:11:23.854, 1560510683854
244, 16437.94, 27747.43, 39191.97, 28849.87, 25679.00, 21365.16, 12840.05, 17425.44, 0.000, 0.000, 0.000, 14:11:23.854, 1560510683854
245, 16356.25, 27783.37, 39295.57, 28787.66, 25853.39, 21330.56, 13029.30, 17338.27, 0.000, 0.000, 0.000, 14:11:23.854, 1560510683854
246, 16261.16, 27755.70, 39271.68, 28713.45, 25894.65, 21253.38, 13017.07, 17260.53, 0.000, 0.000, 0.000, 14:11:23.854, 1560510683854
247, 16353.21, 27687.62, 39103.28, 28777.15, 25623.84, 21266.21, 12675.41, 17360.91, 0.000, 0.000, 0.000, 14:11:23.854, 1560510683854
248, 16471.27, 27710.73, 39118.93, 28865.33, 25562.75, 21348.69, 12662.69, 17451.48, 0.008, 0.044, -1.034, 14:11:23.854, 1560510683854
249, 16462.26, 27748.26, 39208.31, 28853.29, 25680.28, 21366.10, 12825.63, 17433.85, 0.000, 0.000, 0.000, 14:11:23.854, 1560510683854
250, 16363.78, 27792.45, 39294.16, 28786.23, 25860.88, 21337.71, 13017.45, 17352.80, 0.000, 0.000, 0.000, 14:11:23.854, 1560510683854
251, 16259.42, 27766.50, 39269.42, 28709.09, 25907.86, 21258.25, 13005.23, 17268.76, 0.000, 0.000, 0.000, 14:11:23.854, 1560510683854
252, 16345.88, 27687.19, 39078.36, 28769.85, 25624.40, 21259.44, 12662.51, 17358.03, 0.000, 0.000, 0.000, 14:11:23.854, 1560510683854
253, 16453.65, 27708.83, 39095.88, 28857.58, 25550.61, 21337.55, 12652.32, 17447.90, 0.000, 0.000, 0.000, 14:11:23.854, 1560510683854
254, 16441.25, 27743.16, 39206.28, 28844.70, 25662.80, 21351.86, 12816.36, 17432.08, 0.000, 0.000, 0.000, 14:11:23.854, 1560510683854
255, 16358.77, 27776.15, 39310.93, 28772.04, 25839.71, 21316.77, 13002.10, 17346.83, 0.000, 0.000, 0.000, 14:11:23.854, 1560510683854
0, 16256.13, 27756.98, 39263.61, 28691.66, 25892.62, 21240.15, 12998.59, 17266.99, 0.000, 0.000, 0.000, 14:11:23.854, 1560510683854
1, 16338.36, 27684.15, 39055.85, 28753.02, 25612.97, 21244.73, 12658.31, 17358.70, 0.006, 0.046, -1.032, 14:11:23.854, 1560510683854
2, 16440.11, 27707.00, 39070.36, 28834.11, 25536.89, 21322.98, 12643.04, 17443.21, 0.000, 0.000, 0.000, 14:11:23.854, 1560510683854
3, 16427.37, 27747.90, 39173.87, 28829.50, 25656.96, 21345.22, 12816.09, 17431.41, 0.000, 0.000, 0.000, 14:11:23.854, 1560510683854
4, 16354.14, 27779.80, 39299.53, 28775.10, 25836.02, 21319.74, 13011.71, 17352.64, 0.000, 0.000, 0.000, 14:11:23.854, 1560510683854
5, 16258.97, 27749.15, 39270.92, 28691.66, 25887.19, 21239.90, 13007.20, 17266.81, 0.000, 0.000, 0.000, 14:11:23.854, 1560510683854
6, 16346.43, 27679.01, 39056.86, 28759.56, 25613.91, 21249.85, 12668.75, 17362.59, 0.000, 0.000, 0.000, 14:11:23.855, 1560510683855
7, 16461.57, 27706.26, 39075.18, 28839.99, 25545.36, 21332.06, 12652.00, 17453.87, 0.000, 0.000, 0.000, 14:11:23.855, 1560510683855
8, 16443.96, 27758.70, 39173.26, 28831.22, 25669.59, 21349.67, 12827.13, 17438.90, 0.000, 0.000, 0.000, 14:11:23.855, 1560510683855
9, 16352.56, 27780.13, 39260.82, 28773.15, 25833.10, 21317.97, 13011.84, 17348.93, 0.000, 0.000, 0.000, 14:11:23.855, 1560510683855
10, 16246.59, 27735.81, 39259.39, 28685.24, 25880.14, 21237.93, 13007.51, 17258.47, 0.000, 0.000, 0.000, 14:11:23.855, 1560510683855
11, 16323.57, 27657.18, 39068.97, 28751.47, 25605.60, 21246.58, 12667.81, 17352.42, 0.010, 0.056, -1.036, 14:11:23.855, 1560510683855
12, 16437.45, 27692.11, 39071.45, 28839.36, 25535.66, 21331.05, 12650.93, 17445.83, 0.000, 0.000, 0.000, 14:11:23.855, 1560510683855
13, 16436.71, 27738.47, 39175.14, 28828.85, 25660.29, 21362.63, 12828.31, 17440.17, 0.000, 0.000, 0.000, 14:11:23.855, 1560510683855
14, 16354.53, 27773.18, 39283.50, 28766.04, 25828.45, 21331.52, 13011.78, 17354.36, 0.000, 0.000, 0.000, 14:11:23.855, 1560510683855
15, 16260.92, 27752.33, 39273.20, 28687.41, 25881.22, 21247.34, 13011.80, 17264.22, 0.000, 0.000, 0.000, 14:11:23.855, 1560510683855
16, 16358.88, 27682.63, 39103.28, 28758.11, 25607.57, 21259.84, 12674.74, 17361.40, 0.000, 0.000, 0.000, 14:11:23.855, 1560510683855
17, 16470.35, 27705.30, 39099.88, 28849.71, 25534.99, 21345.67, 12649.23, 17454.14, 0.000, 0.000, 0.000, 14:11:23.855, 1560510683855
18, 16464.65, 27753.45, 39202.03, 28844.23, 25653.90, 21369.05, 12816.58, 17443.10, 0.000, 0.000, 0.000, 14:11:23.855, 1560510683855
19, 16375.13, 27795.04, 39301.92, 28780.66, 25822.66, 21338.83, 13003.66, 17359.55, 0.000, 0.000, 0.000, 14:11:23.856, 1560510683856
20, 16266.41, 27758.76, 39277.29, 28696.42, 25881.15, 21257.36, 13007.31, 17272.04, 0.000, 0.000, 0.000, 14:11:23.856, 1560510683856
21, 16345.56, 27677.67, 39092.66, 28761.33, 25602.42, 21261.96, 12673.42, 17369.43, 0.008, 0.052, -1.044, 14:11:23.856, 1560510683856
22, 16457.41, 27705.79, 39125.01, 28853.29, 25527.84, 21346.96, 12652.32, 17468.31, 0.000, 0.000, 0.000, 14:11:23.856, 1560510683856
23, 16446.28, 27751.01, 39202.79, 28840.86, 25647.60, 21365.25, 12816.58, 17453.05, 0.000, 0.000, 0.000, 14:11:23.856, 1560510683856
24, 16371.33, 27782.41, 39288.87, 28785.22, 25816.71, 21331.56, 13000.06, 17368.62, 0.000, 0.000, 0.000, 14:11:23.856, 1560510683856
25, 16275.82, 27753.56, 39261.98, 28696.46, 25871.16, 21247.21, 13011.82, 17278.75, 0.000, 0.000, 0.000, 14:11:23.856, 1560510683856
26, 16346.08, 27678.30, 39058.60, 28747.96, 25592.03, 21246.34, 12673.46, 17367.10, 0.000, 0.000, 0.000, 14:11:23.856, 1560510683856
27, 16444.58, 27700.25, 39073.60, 28829.90, 25500.17, 21324.81, 12643.91, 17456.35, 0.000, 0.000, 0.000, 14:11:23.856, 1560510683856
28, 16439.17, 27747.88, 39184.26, 28825.55, 25621.96, 21342.70, 12812.20, 17442.16, 0.000, 0.000, 0.000, 14:11:23.856, 1560510683856
29, 16372.14, 27778.75, 39273.27, 28762.51, 25796.30, 21310.62, 12993.43, 17358.50, 0.000, 0.000, 0.000, 14:11:23.856, 1560510683856
30, 16268.67, 27755.19, 39245.71, 28678.70, 25863.18, 21236.19, 13005.83, 17264.64, 0.000, 0.000, 0.000, 14:11:23.856, 1560510683856
31, 16337.27, 27681.23, 39049.26, 28736.41, 25585.66, 21235.79, 12665.03, 17349.51, 0.010, 0.050, -1.034, 14:11:23.856, 1560510683856
32, 16445.00, 27696.98, 39067.85, 28832.99, 25505.35, 21320.39, 12633.09, 17445.56, 0.000, 0.000, 0.000, 14:11:23.856, 1560510683856
33, 16435.42, 27732.61, 39157.04, 28825.35, 25628.84, 21343.90, 12802.23, 17429.09, 0.000, 0.000, 0.000, 14:11:23.856, 1560510683856
34, 16353.83, 27766.81, 39251.02, 28764.10, 25796.08, 21317.08, 12983.88, 17344.08, 0.000, 0.000, 0.000, 14:11:23.856, 1560510683856
35, 16251.01, 27747.48, 39246.93, 28687.21, 25856.83, 21239.86, 12995.26, 17248.71, 0.000, 0.000, 0.000, 14:11:23.856, 1560510683856
36, 16328.93, 27669.40, 39045.16, 28741.79, 25585.73, 21239.43, 12651.49, 17329.02, 0.000, 0.000, 0.000, 14:11:23.856, 1560510683856
37, 16444.83, 27696.60, 39052.61, 28836.57, 25505.26, 21329.42, 12620.53, 17426.29, 0.000, 0.000, 0.000, 14:11:23.856, 1560510683856
38, 16445.36, 27743.59, 39176.50, 28838.02, 25636.29, 21362.79, 12797.67, 17421.62, 0.000, 0.000, 0.000, 14:11:23.856, 1560510683856
39, 16360.31, 27768.09, 39274.00, 28772.80, 25802.74, 21332.59, 12969.84, 17333.60, 0.000, 0.000, 0.000, 14:11:23.856, 1560510683856
40, 16259.44, 27746.63, 39244.19, 28691.59, 25867.83, 21254.52, 12985.16, 17244.41, 0.000, 0.000, 0.000, 14:11:23.856, 1560510683856
41, 16345.70, 27681.52, 39056.63, 28749.01, 25598.80, 21259.59, 12662.06, 17339.99, 0.008, 0.054, -1.042, 14:11:23.857, 1560510683857
42, 16460.38, 27710.66, 39077.75, 28836.39, 25497.06, 21336.66, 12616.64, 17432.10, 0.000, 0.000, 0.000, 14:11:23.857, 1560510683857
43, 16463.04, 27757.42, 39183.61, 28840.90, 25622.72, 21366.63, 12792.08, 17429.46, 0.000, 0.000, 0.000, 14:11:23.857, 1560510683857
44, 16381.32, 27783.40, 39287.08, 28785.69, 25797.18, 21343.70, 12980.64, 17352.80, 0.000, 0.000, 0.000, 14:11:23.857, 1560510683857
45, 16253.81, 27746.40, 39262.13, 28694.63, 25864.43, 21256.78, 12998.79, 17253.98, 0.000, 0.000, 0.000, 14:11:23.857, 1560510683857
46, 16322.34, 27666.74, 39068.30, 28748.32, 25592.97, 21254.18, 12661.55, 17338.96, 0.000, 0.000, 0.000, 14:11:23.857, 1560510683857
47, 16440.87, 27686.97, 39067.56, 28844.54, 25504.66, 21339.34, 12616.69, 17440.35, 0.000, 0.000, 0.000, 14:11:23.857, 1560510683857
48, 16428.89, 27728.19, 39159.83, 28833.21, 25619.61, 21356.40, 12782.25, 17425.62, 0.000, 0.000, 0.000, 14:11:23.857, 1560510683857
49, 16352.27, 27766.77, 39271.43, 28772.75, 25786.07, 21325.96, 12962.89, 17348.51, 0.000, 0.000, 0.000, 14:11:23.857, 1560510683857
50, 16263.42, 27751.01, 39283.75, 28688.80, 25863.52, 21250.32, 12994.57, 17266.50, 0.000, 0.000, 0.000, 14:11:23.857, 1560510683857
51, 16349.36, 27678.52, 39076.05, 28752.37, 25603.83, 21256.69, 12677.37, 17366.79, 0.008, 0.052, -1.046, 14:11:23.857, 1560510683857
52, 16459.18, 27700.09, 39060.21, 28839.58, 25504.61, 21337.98, 12632.78, 17462.63, 0.000, 0.000, 0.000, 14:11:23.857, 1560510683857
53, 16453.19, 27756.35, 39178.98, 28825.90, 25626.45, 21363.97, 12805.83, 17456.67, 0.000, 0.000, 0.000, 14:11:23.857, 1560510683857
54, 16374.73, 27787.38, 39282.70, 28778.03, 25794.20, 21339.84, 12991.37, 17383.02, 0.000, 0.000, 0.000, 14:11:23.857, 1560510683857
55, 16273.48, 27758.76, 39257.84, 28697.05, 25869.48, 21256.31, 13020.43, 17288.16, 0.000, 0.000, 0.000, 14:11:23.857, 1560510683857
56, 16369.12, 27696.18, 39084.97, 28765.49, 25605.80, 21263.39, 12697.04, 17384.25, 0.000, 0.000, 0.000, 14:11:23.857, 1560510683857
57, 16477.68, 27707.36, 39083.99, 28856.19, 25508.44, 21344.57, 12646.26, 17481.92, 0.000, 0.000, 0.000, 14:11:23.857, 1560510683857
58, 16458.33, 27744.91, 39169.53, 28846.58, 25628.24, 21371.31, 12818.72, 17474.97, 0.000, 0.000, 0.000, 14:11:23.857, 1560510683857
59, 16374.98, 27784.96, 39272.37, 28789.76, 25797.09, 21349.67, 13000.18, 17396.16, 0.000, 0.000, 0.000, 14:11:23.858, 1560510683858
60, 16272.83, 27775.69, 39278.81, 28708.78, 25870.87, 21270.12, 13028.79, 17297.25, 0.000, 0.000, 0.000, 14:11:23.858, 1560510683858
61, 16361.43, 27712.50, 39087.97, 28770.74, 25608.42, 21275.24, 12696.51, 17383.80, 0.008, 0.052, -1.040, 14:11:23.858, 1560510683858
62, 16488.28, 27730.60, 39087.63, 28864.35, 25506.98, 21361.70, 12643.33, 17478.59, 0.000, 0.000, 0.000, 14:11:23.858, 1560510683858
63, 16469.79, 27771.84, 39197.67, 28852.86, 25618.81, 21387.33, 12808.73, 17458.90, 0.000, 0.000, 0.000, 14:11:23.858, 1560510683858
64, 16393.80, 27809.32, 39286.50, 28798.28, 25790.27, 21360.53, 12992.15, 17379.24, 0.000, 0.000, 0.000, 14:11:23.858, 1560510683858
65, 16284.50, 27784.00, 39262.38, 28706.93, 25867.88, 21276.47, 13020.36, 17275.39, 0.000, 0.000, 0.000, 14:11:23.858, 1560510683858
66, 16353.68, 27705.12, 39081.15, 28763.86, 25595.96, 21271.66, 12681.78, 17354.18, 0.000, 0.000, 0.000, 14:11:23.858, 1560510683858
67, 16473.88, 27706.33, 39070.71, 28859.19, 25485.88, 21351.86, 12626.30, 17454.77, 0.000, 0.000, 0.000, 14:11:23.858, 1560510683858
68, 16476.23, 27751.43, 39176.35, 28856.93, 25611.05, 21376.85, 12796.53, 17447.35, 0.000, 0.000, 0.000, 14:11:23.858, 1560510683858
69, 16393.93, 27783.57, 39273.06, 28786.12, 25772.83, 21343.90, 12971.30, 17362.46, 0.000, 0.000, 0.000, 14:11:23.858, 1560510683858
70, 16271.06, 27748.97, 39271.70, 28678.72, 25846.46, 21251.79, 12994.30, 17252.89, 0.000, 0.000, 0.000, 14:11:23.858, 1560510683858
71, 16341.20, 27671.77, 39070.65, 28727.13, 25575.89, 21240.84, 12651.42, 17323.56, 0.008, 0.054, -1.040, 14:11:23.858, 1560510683858
72, 16452.94, 27694.28, 39060.63, 28830.84, 25465.65, 21321.48, 12591.14, 17422.42, 0.000, 0.000, 0.000, 14:11:23.858, 1560510683858
73, 16447.78, 27736.46, 39163.29, 28833.66, 25583.11, 21348.84, 12769.04, 17418.24, 0.000, 0.000, 0.000, 14:11:24.332, 1560510684332
74, 16367.91, 27768.55, 39247.27, 28766.47, 25748.78, 21325.66, 12948.68, 17341.89, 0.000, 0.000, 0.000, 14:11:24.332, 1560510684332
75, 16250.50, 27744.68, 39247.67, 28674.87, 25830.55, 21242.56, 12992.02, 17243.77, 0.000, 0.000, 0.000, 14:11:24.332, 1560510684332
76, 16327.08, 27672.89, 39057.57, 28729.88, 25568.61, 21237.98, 12666.11, 17328.90, 0.000, 0.000, 0.000, 14:11:24.332, 1560510684332
77, 16460.16, 27696.47, 39049.91, 28831.16, 25465.36, 21323.70, 12606.79, 17436.17, 0.000, 0.000, 0.000, 14:11:24.332, 1560510684332
78, 16459.82, 27735.68, 39149.21, 28832.03, 25580.10, 21353.20, 12781.60, 17431.97, 0.000, 0.000, 0.000, 14:11:24.332, 1560510684332
79, 16389.46, 27766.59, 39261.60, 28780.35, 25744.72, 21329.64, 12960.57, 17360.62, 0.000, 0.000, 0.000, 14:11:24.332, 1560510684332
80, 16278.51, 27753.18, 39264.73, 28689.00, 25837.32, 21256.98, 13007.89, 17266.79, 0.000, 0.000, 0.000, 14:11:24.333, 1560510684333
81, 16351.02, 27682.01, 39077.06, 28744.03, 25581.03, 21255.32, 12683.85, 17350.12, 0.006, 0.052, -1.036, 14:11:24.333, 1560510684333
82, 16486.27, 27714.96, 39070.82, 28848.79, 25480.47, 21343.21, 12624.11, 17456.69, 0.000, 0.000, 0.000, 14:11:24.333, 1560510684333
83, 16461.08, 27745.31, 39160.50, 28836.79, 25590.42, 21360.98, 12785.26, 17435.77, 0.000, 0.000, 0.000, 14:11:24.333, 1560510684333
84, 16380.94, 27775.35, 39257.13, 28785.85, 25756.21, 21340.57, 12966.67, 17361.05, 0.000, 0.000, 0.000, 14:11:24.333, 1560510684333
85, 16272.02, 27769.72, 39274.09, 28699.97, 25851.71, 21276.31, 13019.24, 17269.20, 0.000, 0.000, 0.000, 14:11:24.333, 1560510684333
86, 16335.35, 27691.38, 39075.25, 28758.49, 25590.69, 21267.24, 12685.60, 17343.23, 0.000, 0.000, 0.000, 14:11:24.333, 1560510684333
87, 16457.28, 27710.15, 39060.66, 28852.44, 25476.63, 21352.58, 12618.90, 17450.48, 0.000, 0.000, 0.000, 14:11:24.333, 1560510684333
88, 16462.75, 27758.54, 39175.34, 28848.28, 25598.20, 21386.42, 12796.80, 17449.65, 0.000, 0.000, 0.000, 14:11:24.333, 1560510684333
89, 16398.56, 27781.43, 39271.95, 28789.63, 25758.06, 21355.88, 12970.63, 17366.88, 0.000, 0.000, 0.000, 14:11:24.333, 1560510684333
90, 16291.20, 27755.79, 39263.92, 28701.03, 25845.05, 21274.39, 13015.84, 17261.98, 0.000, 0.000, 0.000, 14:11:24.333, 1560510684333
91, 16352.45, 27680.36, 39078.74, 28749.10, 25590.09, 21263.71, 12677.08, 17335.92, 0.010, 0.046, -1.036, 14:11:24.333, 1560510684333
92, 16466.13, 27700.65, 39072.68, 28849.71, 25480.34, 21349.49, 12609.85, 17450.14, 0.000, 0.000, 0.000, 14:11:24.333, 1560510684333
93, 16452.25, 27734.20, 39172.05, 28838.24, 25593.82, 21372.42, 12782.69, 17443.03, 0.000, 0.000, 0.000, 14:11:24.333, 1560510684333
94, 16401.51, 27771.33, 39256.77, 28779.61, 25754.71, 21348.44, 12958.83, 17372.20, 0.000, 0.000, 0.000, 14:11:24.333, 1560510684333
95, 16284.83, 27756.46, 39248.70, 28683.57, 25841.81, 21262.79, 13008.00, 17263.71, 0.000, 0.000, 0.000, 14:11:24.333, 1560510684333
96, 16349.38, 27701.39, 39065.66, 28736.94, 25587.56, 21259.91, 12686.22, 17345.15, 0.000, 0.000, 0.000, 14:11:24.333, 1560510684333
97, 16459.91, 27712.21, 39063.16, 28845.51, 25464.43, 21343.41, 12608.44, 17448.96, 0.000, 0.000, 0.000, 14:11:24.333, 1560510684333
98, 16451.84, 27736.08, 39163.45, 28846.29, 25579.22, 21369.81, 12783.70, 17440.98, 0.000, 0.000, 0.000, 14:11:24.333, 1560510684333
99, 16371.18, 27767.06, 39247.58, 28770.00, 25737.88, 21338.47, 12957.13, 17362.88, 0.000, 0.000, 0.000, 14:11:24.334, 1560510684334
100, 16270.93, 27757.83, 39254.33, 28674.00, 25821.52, 21256.29, 13008.80, 17261.45, 0.000, 0.000, 0.000, 14:11:24.334, 1560510684334
101, 16354.55, 27689.23, 39069.73, 28726.37, 25565.23, 21250.34, 12687.21, 17339.77, 0.008, 0.048, -1.040, 14:11:24.334, 1560510684334
102, 16465.57, 27692.20, 39058.93, 28819.94, 25446.90, 21333.13, 12608.75, 17446.27, 0.000, 0.000, 0.000, 14:11:24.334, 1560510684334
103, 16443.71, 27732.75, 39165.91, 28816.02, 25566.01, 21361.16, 12784.66, 17441.13, 0.000, 0.000, 0.000, 14:11:24.334, 1560510684334
104, 16382.24, 27773.92, 39245.50, 28761.91, 25731.13, 21335.05, 12958.16, 17368.06, 0.000, 0.000, 0.000, 14:11:24.334, 1560510684334
105, 16260.74, 27755.59, 39232.92, 28674.81, 25829.03, 21251.66, 13010.53, 17263.77, 0.000, 0.000, 0.000, 14:11:24.334, 1560510684334
106, 16320.64, 27677.54, 39044.05, 28728.29, 25578.91, 21242.79, 12683.74, 17337.46, 0.000, 0.000, 0.000, 14:11:24.334, 1560510684334
107, 16444.18, 27691.89, 39029.65, 28826.06, 25456.65, 21324.48, 12604.53, 17443.81, 0.000, 0.000, 0.000, 14:11:24.334, 1560510684334
108, 16451.35, 27744.46, 39139.04, 28826.13, 25574.15, 21356.73, 12783.45, 17439.70, 0.000, 0.000, 0.000, 14:11:24.334, 1560510684334
109, 16386.69, 27769.27, 39241.41, 28771.46, 25734.55, 21337.76, 12963.09, 17372.09, 0.000, 0.000, 0.000, 14:11:24.334, 1560510684334
110, 16271.15, 27751.52, 39250.69, 28681.94, 25831.66, 21256.75, 13024.63, 17268.13, 0.012, 0.042, -1.032, 14:11:24.334, 1560510684334
111, 16341.49, 27679.28, 39065.17, 28726.71, 25578.26, 21245.62, 12698.00, 17338.94, 0.000, 0.000, 0.000, 14:11:24.334, 1560510684334
112, 16459.13, 27687.73, 39041.19, 28823.15, 25447.82, 21320.01, 12598.92, 17432.73, 0.000, 0.000, 0.000, 14:11:24.334, 1560510684334
113, 16459.96, 27742.92, 39143.78, 28829.26, 25561.43, 21358.19, 12775.83, 17437.24, 0.000, 0.000, 0.000, 14:11:24.334, 1560510684334
114, 16399.09, 27779.71, 39255.96, 28780.06, 25727.35, 21343.99, 12957.95, 17369.72, 0.000, 0.000, 0.000, 14:11:24.334, 1560510684334
115, 16295.67, 27764.08, 39280.15, 28691.48, 25835.89, 21263.24, 13021.32, 17267.59, 0.000, 0.000, 0.000, 14:11:24.334, 1560510684334
116, 16361.16, 27697.23, 39102.90, 28737.48, 25588.10, 21263.84, 12701.92, 17346.38, 0.000, 0.000, 0.000, 14:11:24.334, 1560510684334
117, 16466.87, 27702.91, 39065.42, 28834.17, 25455.57, 21346.68, 12602.54, 17446.18, 0.000, 0.000, 0.000, 14:11:24.334, 1560510684334
118, 16472.83, 27750.25, 39156.86, 28837.79, 25570.55, 21381.68, 12775.65, 17442.50, 0.000, 0.000, 0.000, 14:11:24.334, 1560510684334
119, 16410.00, 27782.50, 39245.21, 28783.32, 25730.54, 21365.07, 12949.24, 17371.93, 0.000, 0.000, 0.000, 14:11:24.334, 1560510684334
120, 16288.65, 27768.87, 39266.83, 28691.28, 25834.21, 21282.95, 13012.02, 17264.51, 0.008, 0.050, -1.028, 14:11:24.334, 1560510684334
