%OpenBCI Raw EEG Data
%Number of channels = 8
%Sample Rate = 250.0 Hz
%First Column = SampleIndex
%Last Column = Timestamp 
%Other Columns = EEG data in microvolts followed by Accel Data (in G) interleaved with Aux Data
0, -20.03, -25.24, -23.11, -21.37, -21.30, -14.13, -26.80, -2600.11, 0.294, -0.106, -0.978, 20:38:04.761, 1561570684761
1, -20.05, -25.30, -22.89, -21.64, -21.26, -14.13, -26.76, -2614.93, 0.000, 0.000, 0.000, 20:38:04.761, 1561570684761
2, -20.09, -25.28, -22.96, -21.59, -21.28, -14.37, -26.62, -1781.39, 0.000, 0.000, 0.000, 20:38:04.761, 1561570684761
3, -20.07, -25.41, -23.09, -21.70, -21.32, -14.26, -26.76, -831.10, 0.000, 0.000, 0.000, 20:38:04.762, 1561570684762
4, -20.05, -25.53, -23.07, -21.66, -21.26, -14.17, -26.53, -1233.62, 0.000, 0.000, 0.000, 20:38:04.762, 1561570684762
5, -20.07, -25.24, -23.34, -21.44, -21.26, -14.10, -26.58, -2591.33, 0.000, 0.000, 0.000, 20:38:04.762, 1561570684762
6, -20.05, -25.39, -23.45, -21.50, -21.28, -14.10, -26.84, -2622.78, 0.000, 0.000, 0.000, 20:38:04.762, 1561570684762
7, -20.03, -25.50, -23.51, -21.44, -21.28, -14.19, -26.76, -1791.45, 0.292, -0.102, -0.978, 20:38:04.762, 1561570684762
8, -20.09, -25.21, -23.27, -21.84, -21.30, -14.28, -26.98, -836.11, 0.000, 0.000, 0.000, 20:38:04.762, 1561570684762
9, -20.09, -25.17, -23.11, -21.88, -21.26, -14.37, -26.73, -1224.74, 0.000, 0.000, 0.000, 20:38:04.762, 1561570684762
10, -20.07, -25.17, -23.04, -21.77, -21.32, -14.28, -26.80, -2583.06, 0.000, 0.000, 0.000, 20:38:04.762, 1561570684762
11, -20.09, -25.15, -23.29, -21.75, -21.30, -14.15, -26.80, -2613.66, 0.000, 0.000, 0.000, 20:38:04.762, 1561570684762
12, -20.09, -25.26, -23.51, -21.61, -21.28, -14.22, -26.64, -1789.91, 0.000, 0.000, 0.000, 20:38:04.762, 1561570684762
13, -20.05, -25.35, -23.27, -21.66, -21.28, -13.99, -26.78, -841.23, 0.000, 0.000, 0.000, 20:38:04.762, 1561570684762
14, -20.03, -25.35, -23.22, -21.82, -21.28, -14.04, -26.84, -1224.74, 0.000, 0.000, 0.000, 20:38:04.762, 1561570684762
15, -20.05, -25.39, -23.22, -21.61, -21.28, -14.33, -26.80, -2580.96, 0.000, 0.000, 0.000, 20:38:04.820, 1561570684820
16, -20.09, -25.39, -23.18, -21.59, -21.28, -14.01, -27.00, -2618.19, 0.000, 0.000, 0.000, 20:38:04.820, 1561570684820
17, -20.09, -25.46, -23.29, -21.59, -21.28, -14.01, -27.05, -1795.76, 0.292, -0.102, -0.976, 20:38:04.820, 1561570684820
18, -20.14, -25.62, -23.11, -21.66, -21.30, -14.10, -26.53, -855.00, 0.000, 0.000, 0.000, 20:38:04.820, 1561570684820
19, -20.14, -25.66, -23.20, -21.66, -21.30, -14.01, -26.51, -1230.64, 0.000, 0.000, 0.000, 20:38:04.820, 1561570684820
20, -20.07, -25.28, -23.11, -21.48, -21.28, -14.24, -26.62, -2583.33, 0.000, 0.000, 0.000, 20:38:04.820, 1561570684820
21, -20.05, -25.35, -23.13, -21.55, -21.35, -14.22, -26.89, -2620.56, 0.000, 0.000, 0.000, 20:38:04.820, 1561570684820
22, -20.07, -25.37, -23.25, -21.28, -21.37, -14.51, -26.78, -1793.57, 0.000, 0.000, 0.000, 20:38:04.820, 1561570684820
23, -20.07, -25.48, -23.13, -21.59, -21.32, -14.42, -26.91, -848.67, 0.000, 0.000, 0.000, 20:38:04.820, 1561570684820
24, -20.07, -25.37, -23.09, -21.44, -21.17, -14.01, -27.00, -1219.60, 0.000, 0.000, 0.000, 20:38:04.820, 1561570684820
25, -20.09, -25.44, -23.16, -21.93, -21.21, -14.17, -26.84, -2588.35, 0.000, 0.000, 0.000, 20:38:04.820, 1561570684820
26, -20.16, -25.55, -23.09, -21.61, -21.26, -14.22, -26.73, -2643.03, 0.294, -0.100, -0.978, 20:38:04.820, 1561570684820
27, -20.14, -25.39, -23.27, -21.14, -21.21, -14.01, -26.60, -1800.50, 0.000, 0.000, 0.000, 20:38:04.821, 1561570684821
28, -20.09, -25.35, -23.34, -21.55, -21.21, -14.22, -26.62, -849.52, 0.000, 0.000, 0.000, 20:38:04.821, 1561570684821
29, -20.09, -25.44, -23.34, -21.55, -21.32, -14.35, -26.89, -1212.07, 0.000, 0.000, 0.000, 20:38:04.821, 1561570684821
30, -20.05, -25.46, -23.22, -21.52, -21.26, -14.46, -26.96, -2594.19, 0.000, 0.000, 0.000, 20:38:04.879, 1561570684879
31, -20.09, -25.57, -23.18, -21.52, -21.28, -14.35, -26.87, -2649.06, 0.000, 0.000, 0.000, 20:38:04.879, 1561570684879
32, -20.09, -25.57, -23.29, -21.77, -21.21, -14.33, -26.87, -1821.71, 0.000, 0.000, 0.000, 20:38:04.880, 1561570684880
33, -20.12, -25.46, -23.25, -21.70, -21.26, -14.37, -27.02, -863.94, 0.000, 0.000, 0.000, 20:38:04.880, 1561570684880
34, -20.14, -25.37, -23.29, -21.66, -21.32, -14.10, -26.64, -1210.03, 0.000, 0.000, 0.000, 20:38:04.880, 1561570684880
35, -20.12, -25.28, -23.07, -21.66, -21.32, -14.06, -26.87, -2584.55, 0.000, 0.000, 0.000, 20:38:04.880, 1561570684880
36, -20.05, -25.37, -23.20, -21.50, -21.32, -14.13, -27.02, -2636.37, 0.296, -0.102, -0.980, 20:38:04.880, 1561570684880
37, -20.05, -25.28, -23.42, -21.39, -21.32, -13.99, -26.96, -1808.23, 0.000, 0.000, 0.000, 20:38:04.880, 1561570684880
38, -20.05, -25.50, -23.11, -21.75, -21.26, -14.08, -26.76, -859.13, 0.000, 0.000, 0.000, 20:38:04.880, 1561570684880
39, -20.09, -25.62, -23.29, -21.66, -21.21, -14.17, -26.69, -1203.04, 0.000, 0.000, 0.000, 20:38:04.880, 1561570684880
40, -20.09, -25.55, -23.27, -21.32, -21.26, -13.99, -26.91, -2576.84, 0.000, 0.000, 0.000, 20:38:04.880, 1561570684880
41, -20.09, -25.48, -23.13, -21.55, -21.39, -14.06, -26.91, -2642.74, 0.000, 0.000, 0.000, 20:38:04.880, 1561570684880
42, -20.12, -25.50, -23.51, -21.73, -21.32, -14.28, -26.84, -1819.28, 0.000, 0.000, 0.000, 20:38:04.880, 1561570684880
43, -20.12, -25.41, -23.63, -21.70, -21.17, -13.88, -26.71, -865.77, 0.000, 0.000, 0.000, 20:38:04.880, 1561570684880
44, -20.05, -25.37, -23.47, -21.79, -21.26, -13.95, -26.69, -1209.72, 0.000, 0.000, 0.000, 20:38:04.880, 1561570684880
45, -20.07, -25.59, -23.16, -21.73, -21.28, -14.33, -26.91, -2579.15, 0.000, 0.000, 0.000, 20:38:04.938, 1561570684938
46, -20.03, -25.79, -23.27, -21.73, -21.26, -14.28, -26.78, -2655.30, 0.292, -0.098, -0.982, 20:38:04.938, 1561570684938
47, -20.03, -25.55, -23.42, -21.46, -21.19, -13.99, -26.53, -1830.76, 0.000, 0.000, 0.000, 20:38:04.938, 1561570684938
48, -20.00, -25.32, -23.18, -21.44, -21.26, -13.99, -26.96, -876.68, 0.000, 0.000, 0.000, 20:38:04.938, 1561570684938
49, -20.00, -25.39, -23.20, -21.79, -21.28, -14.15, -26.93, -1220.00, 0.000, 0.000, 0.000, 20:38:04.938, 1561570684938
50, -20.03, -25.28, -23.25, -21.44, -21.26, -14.31, -26.87, -2594.75, 0.000, 0.000, 0.000, 20:38:04.938, 1561570684938
51, -20.05, -25.28, -23.34, -21.64, -21.26, -14.22, -26.80, -2657.22, 0.000, 0.000, 0.000, 20:38:04.938, 1561570684938
52, -20.07, -25.50, -23.67, -21.55, -21.21, -13.88, -26.69, -1855.04, 0.000, 0.000, 0.000, 20:38:04.938, 1561570684938
53, -20.00, -25.39, -23.40, -21.55, -21.32, -13.95, -26.73, -895.01, 0.000, 0.000, 0.000, 20:38:04.938, 1561570684938
54, -20.05, -25.35, -23.45, -21.61, -21.28, -14.06, -26.46, -1205.70, 0.000, 0.000, 0.000, 20:38:04.938, 1561570684938
55, -20.05, -25.41, -23.27, -21.68, -21.21, -14.22, -26.29, -2579.82, 0.000, 0.000, 0.000, 20:38:04.938, 1561570684938
56, -20.07, -25.41, -23.16, -21.70, -21.26, -14.35, -26.58, -2667.68, 0.296, -0.100, -0.982, 20:38:04.938, 1561570684938
57, -20.12, -25.35, -23.27, -21.39, -21.28, -14.22, -26.60, -1851.15, 0.000, 0.000, 0.000, 20:38:04.938, 1561570684938
58, -20.05, -25.46, -23.22, -21.48, -21.26, -14.10, -26.80, -891.75, 0.000, 0.000, 0.000, 20:38:04.938, 1561570684938
59, -20.05, -25.66, -23.09, -21.73, -21.30, -14.22, -26.82, -1212.58, 0.000, 0.000, 0.000, 20:38:04.938, 1561570684938
60, -20.07, -25.46, -23.20, -21.70, -21.32, -14.17, -26.58, -2586.34, 0.000, 0.000, 0.000, 20:38:04.999, 1561570684999
61, -20.12, -25.57, -23.40, -21.66, -21.21, -14.39, -26.89, -2664.31, 0.000, 0.000, 0.000, 20:38:04.999, 1561570684999
62, -20.12, -25.30, -23.20, -21.79, -21.28, -14.22, -26.98, -1852.11, 0.000, 0.000, 0.000, 20:38:05.000, 1561570685000
63, -20.09, -25.32, -23.16, -21.77, -21.26, -14.26, -27.07, -894.47, 0.000, 0.000, 0.000, 20:38:05.000, 1561570685000
64, -20.05, -25.30, -23.09, -21.61, -21.28, -14.24, -26.80, -1209.61, 0.000, 0.000, 0.000, 20:38:05.000, 1561570685000
65, -20.05, -25.12, -23.27, -21.50, -21.26, -14.51, -26.46, -2580.20, 0.000, 0.000, 0.000, 20:38:05.000, 1561570685000
66, -20.05, -25.35, -23.40, -21.70, -21.23, -14.28, -26.84, -2668.08, 0.294, -0.100, -0.982, 20:38:05.000, 1561570685000
67, -19.98, -25.35, -23.45, -21.70, -21.28, -14.10, -26.69, -1866.12, 0.000, 0.000, 0.000, 20:38:05.000, 1561570685000
68, -20.14, -25.15, -23.45, -21.77, -21.30, -13.86, -26.69, -911.33, 0.000, 0.000, 0.000, 20:38:05.000, 1561570685000
69, -20.09, -25.44, -23.34, -21.59, -21.26, -14.22, -26.91, -1215.44, 0.000, 0.000, 0.000, 20:38:05.000, 1561570685000
70, -20.07, -25.57, -23.25, -21.73, -21.28, -14.15, -26.64, -2588.89, 0.000, 0.000, 0.000, 20:38:05.000, 1561570685000
71, -20.07, -25.55, -23.38, -21.61, -21.26, -14.06, -26.71, -2681.27, 0.000, 0.000, 0.000, 20:38:05.000, 1561570685000
72, -20.09, -25.57, -23.27, -21.64, -21.26, -14.04, -26.80, -1876.23, 0.000, 0.000, 0.000, 20:38:05.000, 1561570685000
73, -20.09, -25.41, -23.16, -21.59, -21.28, -14.17, -26.80, -908.55, 0.000, 0.000, 0.000, 20:38:05.000, 1561570685000
74, -20.09, -25.39, -23.00, -21.50, -21.32, -14.08, -26.64, -1211.98, 0.000, 0.000, 0.000, 20:38:05.000, 1561570685000
75, -20.09, -25.41, -23.09, -21.46, -21.26, -14.10, -26.73, -2596.62, 0.000, 0.000, 0.000, 20:38:05.060, 1561570685060
76, -20.12, -25.19, -23.16, -21.77, -21.26, -14.01, -26.78, -2685.92, 0.296, -0.096, -0.980, 20:38:05.064, 1561570685064
77, -20.09, -25.53, -23.07, -21.82, -21.21, -14.01, -26.67, -1869.66, 0.000, 0.000, 0.000, 20:38:05.064, 1561570685064
78, -20.03, -25.59, -23.11, -21.82, -21.32, -14.44, -26.89, -901.98, 0.000, 0.000, 0.000, 20:38:05.064, 1561570685064
79, -20.05, -25.50, -23.38, -21.59, -21.28, -14.17, -26.93, -1186.74, 0.000, 0.000, 0.000, 20:38:05.065, 1561570685065
80, -20.07, -25.35, -23.27, -21.77, -21.28, -14.33, -27.02, -2575.01, 0.000, 0.000, 0.000, 20:38:05.065, 1561570685065
81, -20.09, -25.30, -23.13, -21.61, -21.26, -13.99, -26.80, -2686.14, 0.000, 0.000, 0.000, 20:38:05.065, 1561570685065
82, -20.05, -25.44, -23.07, -21.64, -21.26, -14.06, -26.80, -1875.98, 0.000, 0.000, 0.000, 20:38:05.065, 1561570685065
83, -20.05, -25.41, -22.93, -21.77, -21.35, -14.17, -26.73, -904.51, 0.000, 0.000, 0.000, 20:38:05.065, 1561570685065
84, -20.09, -25.28, -23.16, -21.59, -21.30, -14.22, -26.71, -1185.85, 0.000, 0.000, 0.000, 20:38:05.065, 1561570685065
85, -20.09, -25.57, -23.04, -21.50, -21.28, -14.22, -26.91, -2568.10, 0.000, 0.000, 0.000, 20:38:05.065, 1561570685065
86, -20.07, -25.35, -23.18, -21.55, -21.23, -14.13, -26.98, -2689.88, 0.294, -0.102, -0.980, 20:38:05.065, 1561570685065
87, -20.14, -25.21, -23.20, -21.61, -21.26, -14.22, -26.80, -1882.46, 0.000, 0.000, 0.000, 20:38:05.065, 1561570685065
88, -20.09, -25.37, -23.36, -21.57, -21.32, -14.13, -26.64, -920.98, 0.000, 0.000, 0.000, 20:38:05.065, 1561570685065
89, -20.09, -25.30, -23.00, -21.84, -21.28, -14.17, -26.62, -1196.62, 0.000, 0.000, 0.000, 20:38:05.065, 1561570685065
90, -20.12, -25.35, -23.20, -21.61, -21.28, -14.33, -26.62, -2580.44, 0.000, 0.000, 0.000, 20:38:05.119, 1561570685119
91, -20.07, -25.41, -23.22, -21.39, -21.26, -14.24, -26.69, -2696.20, 0.000, 0.000, 0.000, 20:38:05.119, 1561570685119
92, -20.07, -25.46, -23.29, -21.46, -21.32, -14.22, -26.64, -1901.84, 0.000, 0.000, 0.000, 20:38:05.122, 1561570685122
93, -20.14, -25.48, -23.65, -21.55, -21.30, -13.99, -26.76, -936.61, 0.000, 0.000, 0.000, 20:38:05.122, 1561570685122
94, -20.12, -25.39, -23.22, -21.57, -21.32, -14.01, -26.93, -1197.14, 0.000, 0.000, 0.000, 20:38:05.122, 1561570685122
95, -20.05, -25.28, -23.09, -21.66, -21.28, -14.06, -26.73, -2579.10, 0.000, 0.000, 0.000, 20:38:05.122, 1561570685122
96, -20.09, -25.35, -23.04, -21.84, -21.26, -14.17, -26.89, -2696.72, 0.294, -0.100, -0.982, 20:38:05.122, 1561570685122
97, -20.12, -25.06, -23.40, -21.68, -21.26, -14.28, -27.20, -1907.63, 0.000, 0.000, 0.000, 20:38:05.122, 1561570685122
98, -20.03, -25.21, -23.11, -21.66, -21.28, -14.01, -26.96, -933.10, 0.000, 0.000, 0.000, 20:38:05.122, 1561570685122
99, -20.05, -25.08, -22.89, -21.52, -21.26, -14.01, -26.80, -1193.72, 0.000, 0.000, 0.000, 20:38:05.122, 1561570685122
100, -20.03, -25.24, -23.20, -21.50, -21.26, -14.17, -26.51, -2582.27, 0.000, 0.000, 0.000, 20:38:05.122, 1561570685122
101, -20.09, -25.24, -23.16, -21.66, -21.32, -14.04, -26.51, -2704.92, 0.000, 0.000, 0.000, 20:38:05.122, 1561570685122
102, -20.05, -25.19, -23.49, -21.93, -21.30, -13.97, -27.05, -1904.28, 0.000, 0.000, 0.000, 20:38:05.122, 1561570685122
103, -20.09, -25.30, -23.49, -21.68, -21.26, -14.17, -26.78, -938.08, 0.000, 0.000, 0.000, 20:38:05.122, 1561570685122
104, -20.12, -25.39, -23.34, -21.77, -21.26, -14.17, -26.78, -1198.37, 0.000, 0.000, 0.000, 20:38:05.122, 1561570685122
0, 14916.06, 18789.63, 21403.94, 22511.92, 1555.77, 7682.90, 9490.21, -1276.82, 0.118, -0.044, -0.500, 20:38:22.430, 1561570702430
1, 14022.19, 15604.31, 19062.44, 21675.60, -385.32, 6967.28, 7794.14, -2424.67, 0.000, 0.000, 0.000, 20:38:22.430, 1561570702430
2, 13433.58, 13578.26, 17110.73, 20995.04, -1326.71, 6473.80, 6797.50, -3283.81, 0.000, 0.000, 0.000, 20:38:22.430, 1561570702430
3, 13805.58, 14816.59, 17852.99, 21312.72, -401.97, 6764.15, 7557.37, -2788.40, 0.000, 0.000, 0.000, 20:38:22.430, 1561570702430
4, 14577.20, 17607.50, 20095.56, 22075.50, 1101.76, 7392.62, 8930.04, -1814.54, 0.000, 0.000, 0.000, 20:38:22.430, 1561570702430
5, 14923.39, 18813.28, 21414.27, 22513.91, 1559.17, 7685.58, 9502.13, -1269.09, 0.000, 0.000, 0.000, 20:38:22.431, 1561570702431
6, 14028.13, 15635.27, 19079.69, 21678.08, -385.03, 6964.94, 7802.59, -2418.66, 0.000, 0.000, 0.000, 20:38:22.431, 1561570702431
7, 13427.68, 13582.04, 17105.81, 20988.64, -1337.33, 6463.86, 6784.69, -3291.79, 0.182, -0.070, -0.744, 20:38:22.431, 1561570702431
8, 13801.98, 14818.45, 17849.39, 21308.61, -405.77, 6753.78, 7545.70, -2795.51, 0.000, 0.000, 0.000, 20:38:22.431, 1561570702431
9, 14573.65, 17598.44, 20090.73, 22068.26, 1091.08, 7384.97, 8917.99, -1821.06, 0.000, 0.000, 0.000, 20:38:22.431, 1561570702431
10, 14917.67, 18796.50, 21404.97, 22506.57, 1553.29, 7685.11, 9490.86, -1275.46, 0.000, 0.000, 0.000, 20:38:22.431, 1561570702431
11, 14034.75, 15643.29, 19089.35, 21685.17, -375.40, 6974.93, 7805.07, -2414.70, 0.000, 0.000, 0.000, 20:38:22.431, 1561570702431
12, 13430.49, 13576.07, 17103.06, 20989.16, -1348.23, 6467.61, 6775.33, -3297.26, 0.000, 0.000, 0.000, 20:38:22.431, 1561570702431
13, 13803.81, 14811.54, 17844.27, 21312.81, -414.20, 6763.12, 7542.06, -2797.32, 0.000, 0.000, 0.000, 20:38:22.431, 1561570702431
14, 14573.74, 17591.92, 20079.71, 22075.16, 1083.28, 7391.41, 8912.71, -1823.37, 0.000, 0.000, 0.000, 20:38:22.431, 1561570702431
15, 14920.53, 18805.55, 21405.91, 22514.82, 1554.76, 7686.85, 9490.59, -1271.75, 0.000, 0.000, 0.000, 20:38:22.491, 1561570702491
16, 14033.05, 15648.61, 19092.10, 21687.85, -376.31, 6970.70, 7803.24, -2412.29, 0.000, 0.000, 0.000, 20:38:22.491, 1561570702491
17, 13429.38, 13572.40, 17104.47, 20990.86, -1346.87, 6464.37, 6770.99, -3294.49, 0.216, -0.086, -0.862, 20:38:22.492, 1561570702492
18, 13803.86, 14801.79, 17841.63, 21313.55, -413.93, 6762.61, 7532.83, -2796.14, 0.000, 0.000, 0.000, 20:38:22.492, 1561570702492
19, 14569.34, 17577.59, 20069.50, 22066.49, 1073.78, 7385.98, 8896.53, -1829.96, 0.000, 0.000, 0.000, 20:38:22.492, 1561570702492
20, 14916.37, 18795.87, 21396.68, 22503.06, 1543.45, 7679.81, 9477.00, -1279.03, 0.000, 0.000, 0.000, 20:38:22.492, 1561570702492
21, 14038.48, 15651.81, 19094.18, 21687.56, -374.66, 6972.05, 7804.51, -2405.70, 0.000, 0.000, 0.000, 20:38:22.492, 1561570702492
22, 13435.97, 13580.12, 17109.81, 20995.42, -1338.49, 6471.25, 6778.90, -3280.27, 0.000, 0.000, 0.000, 20:38:22.492, 1561570702492
23, 13800.39, 14787.69, 17827.64, 21305.82, -421.35, 6758.56, 7525.25, -2793.50, 0.000, 0.000, 0.000, 20:38:22.492, 1561570702492
24, 14572.08, 17571.78, 20059.97, 22067.27, 1074.02, 7389.96, 8893.60, -1823.77, 0.000, 0.000, 0.000, 20:38:22.492, 1561570702492
25, 14933.67, 18845.67, 21427.74, 22523.38, 1572.83, 7701.14, 9505.33, -1250.60, 0.000, 0.000, 0.000, 20:38:22.492, 1561570702492
26, 14049.93, 15701.12, 19132.60, 21705.02, -345.80, 6988.00, 7828.09, -2374.74, 0.236, -0.090, -0.922, 20:38:22.492, 1561570702492
27, 13436.48, 13591.38, 17124.41, 21003.80, -1332.19, 6475.99, 6784.42, -3270.10, 0.000, 0.000, 0.000, 20:38:22.492, 1561570702492
28, 13803.01, 14795.29, 17835.98, 21312.86, -414.83, 6761.13, 7533.43, -2788.13, 0.000, 0.000, 0.000, 20:38:22.492, 1561570702492
29, 14574.32, 17570.84, 20062.32, 22069.64, 1073.67, 7386.11, 8895.57, -1825.00, 0.000, 0.000, 0.000, 20:38:22.492, 1561570702492
30, 14931.28, 18826.18, 21420.44, 22523.72, 1567.62, 7694.86, 9497.95, -1262.85, 0.000, 0.000, 0.000, 20:38:22.549, 1561570702549
31, 14051.74, 15700.02, 19136.06, 21711.08, -342.25, 6987.74, 7830.08, -2386.09, 0.000, 0.000, 0.000, 20:38:22.549, 1561570702549
32, 13438.23, 13583.69, 17118.73, 21005.54, -1338.13, 6473.80, 6779.53, -3282.87, 0.000, 0.000, 0.000, 20:38:22.549, 1561570702549
33, 13800.88, 14769.56, 17816.17, 21309.53, -431.93, 6756.10, 7519.22, -2809.86, 0.000, 0.000, 0.000, 20:38:22.549, 1561570702549
34, 14572.89, 17545.98, 20042.65, 22065.17, 1061.89, 7381.08, 8883.54, -1847.04, 0.000, 0.000, 0.000, 20:38:22.549, 1561570702549
35, 14938.50, 18831.01, 21422.02, 22520.79, 1571.95, 7689.58, 9495.87, -1272.24, 0.000, 0.000, 0.000, 20:38:22.549, 1561570702549
36, 14057.97, 15705.32, 19138.39, 21707.90, -341.38, 6982.53, 7823.78, -2395.46, 0.242, -0.092, -0.958, 20:38:22.549, 1561570702549
37, 13440.91, 13591.33, 17123.16, 21004.56, -1335.29, 6469.60, 6776.02, -3288.97, 0.000, 0.000, 0.000, 20:38:22.549, 1561570702549
38, 13795.65, 14771.55, 17816.78, 21311.09, -434.05, 6749.98, 7509.94, -2812.68, 0.000, 0.000, 0.000, 20:38:22.549, 1561570702549
39, 14564.28, 17538.92, 20034.49, 22065.78, 1053.59, 7376.25, 8874.45, -1849.41, 0.000, 0.000, 0.000, 20:38:22.549, 1561570702549
40, 14932.69, 18833.02, 21421.89, 22525.71, 1574.55, 7693.83, 9502.80, -1269.33, 0.000, 0.000, 0.000, 20:38:22.549, 1561570702549
41, 14055.13, 15707.13, 19144.36, 21715.77, -333.11, 6990.35, 7833.62, -2387.66, 0.000, 0.000, 0.000, 20:38:22.549, 1561570702549
42, 13434.94, 13590.15, 17121.17, 21008.20, -1335.76, 6473.49, 6780.11, -3285.59, 0.000, 0.000, 0.000, 20:38:22.550, 1561570702550
43, 13788.66, 14759.62, 17809.89, 21308.10, -436.51, 6748.42, 7517.70, -2811.42, 0.000, 0.000, 0.000, 20:38:22.550, 1561570702550
44, 14550.74, 17516.77, 20015.00, 22055.47, 1044.88, 7367.51, 8873.67, -1857.23, 0.000, 0.000, 0.000, 20:38:22.550, 1561570702550
45, 14936.02, 18849.63, 21431.57, 22530.67, 1586.21, 7695.28, 9518.87, -1261.24, 0.000, 0.000, 0.000, 20:38:22.611, 1561570702611
46, 14064.54, 15743.43, 19170.71, 21725.94, -318.83, 6996.48, 7859.61, -2374.56, 0.240, -0.090, -0.980, 20:38:22.611, 1561570702611
47, 13431.19, 13590.46, 17123.36, 21008.36, -1343.50, 6470.05, 6785.90, -3291.27, 0.000, 0.000, 0.000, 20:38:22.611, 1561570702611
48, 13786.06, 14755.46, 17803.74, 21310.15, -444.64, 6746.52, 7516.20, -2818.69, 0.000, 0.000, 0.000, 20:38:22.611, 1561570702611
49, 14556.26, 17520.68, 20020.43, 22065.28, 1048.14, 7374.80, 8882.76, -1852.18, 0.000, 0.000, 0.000, 20:38:22.611, 1561570702611
50, 14934.76, 18845.94, 21428.50, 22530.36, 1577.72, 7695.82, 9515.67, -1263.61, 0.000, 0.000, 0.000, 20:38:22.611, 1561570702611
51, 14064.03, 15749.58, 19172.05, 21723.03, -325.02, 6992.94, 7855.32, -2371.70, 0.000, 0.000, 0.000, 20:38:22.611, 1561570702611
52, 13433.15, 13593.10, 17124.99, 21008.27, -1345.26, 6470.11, 6782.59, -3278.02, 0.000, 0.000, 0.000, 20:38:22.611, 1561570702611
53, 13791.21, 14756.46, 17806.88, 21316.37, -444.06, 6755.77, 7517.45, -2804.56, 0.000, 0.000, 0.000, 20:38:22.611, 1561570702611
54, 14556.04, 17517.69, 20012.81, 22068.10, 1039.76, 7375.56, 8876.50, -1844.15, 0.000, 0.000, 0.000, 20:38:22.611, 1561570702611
55, 14935.32, 18853.72, 21429.31, 22536.06, 1581.21, 7699.06, 9520.59, -1251.32, 0.000, 0.000, 0.000, 20:38:22.611, 1561570702611
56, 14062.11, 15760.39, 19184.93, 21729.14, -312.43, 6998.17, 7864.84, -2359.45, 0.242, -0.094, -0.986, 20:38:22.611, 1561570702611
57, 13428.39, 13587.29, 17125.79, 21008.02, -1345.71, 6469.33, 6778.26, -3280.54, 0.000, 0.000, 0.000, 20:38:22.611, 1561570702611
58, 13783.18, 14738.54, 17791.50, 21302.02, -456.85, 6739.65, 7499.99, -2817.55, 0.000, 0.000, 0.000, 20:38:22.611, 1561570702611
59, 14547.45, 17500.12, 19997.61, 22056.50, 1032.02, 7365.68, 8863.67, -1854.97, 0.000, 0.000, 0.000, 20:38:22.611, 1561570702611
60, 14928.73, 18851.53, 21424.21, 22530.40, 1579.20, 7693.43, 9516.79, -1257.38, 0.000, 0.000, 0.000, 20:38:22.671, 1561570702671
61, 14071.07, 15778.74, 19198.47, 21738.63, -303.34, 7004.23, 7883.21, -2350.44, 0.000, 0.000, 0.000, 20:38:22.671, 1561570702671
62, 13434.05, 13596.21, 17132.84, 21014.06, -1341.71, 6474.32, 6793.05, -3274.17, 0.000, 0.000, 0.000, 20:38:22.671, 1561570702671
63, 13780.19, 14734.00, 17790.54, 21301.23, -455.17, 6740.24, 7506.14, -2815.58, 0.000, 0.000, 0.000, 20:38:22.671, 1561570702671
64, 14546.51, 17492.65, 19995.18, 22055.00, 1030.66, 7364.36, 8868.41, -1855.95, 0.000, 0.000, 0.000, 20:38:22.671, 1561570702671
65, 14936.44, 18862.12, 21434.03, 22536.68, 1586.48, 7698.23, 9524.75, -1255.03, 0.000, 0.000, 0.000, 20:38:22.671, 1561570702671
66, 14076.44, 15799.29, 19216.04, 21741.41, -301.48, 7005.10, 7885.38, -2351.43, 0.248, -0.094, -0.986, 20:38:22.671, 1561570702671
67, 13436.75, 13601.35, 17143.36, 21012.88, -1342.18, 6471.23, 6785.21, -3278.60, 0.000, 0.000, 0.000, 20:38:22.671, 1561570702671
68, 13789.15, 14746.47, 17808.42, 21309.33, -444.22, 6746.16, 7510.32, -2810.04, 0.000, 0.000, 0.000, 20:38:22.671, 1561570702671
69, 14546.92, 17490.89, 20001.17, 22056.61, 1035.11, 7367.60, 8858.53, -1856.60, 0.000, 0.000, 0.000, 20:38:22.671, 1561570702671
70, 14937.47, 18865.72, 21441.33, 22540.35, 1595.45, 7703.10, 9516.52, -1256.24, 0.000, 0.000, 0.000, 20:38:22.671, 1561570702671
71, 14086.72, 15817.17, 19236.11, 21754.15, -282.70, 7014.40, 7893.18, -2339.71, 0.000, 0.000, 0.000, 20:38:22.671, 1561570702671
72, 13435.32, 13593.15, 17138.89, 21011.62, -1348.57, 6471.14, 6781.72, -3279.69, 0.000, 0.000, 0.000, 20:38:22.671, 1561570702671
73, 13779.36, 14723.50, 17786.27, 21297.05, -461.63, 6738.94, 7496.95, -2825.75, 0.000, 0.000, 0.000, 20:38:22.671, 1561570702671
74, 14544.97, 17475.55, 19986.42, 22048.14, 1025.50, 7363.54, 8858.85, -1863.51, 0.000, 0.000, 0.000, 20:38:22.671, 1561570702671
75, 14935.10, 18860.49, 21431.21, 22524.72, 1587.96, 7693.69, 9520.86, -1261.87, 0.000, 0.000, 0.000, 20:38:22.731, 1561570702731
76, 14088.15, 15828.19, 19242.37, 21747.33, -277.74, 7014.89, 7907.60, -2337.01, 0.246, -0.094, -0.990, 20:38:22.731, 1561570702731
77, 13436.50, 13593.75, 17138.42, 21006.08, -1356.39, 6471.17, 6784.27, -3283.63, 0.000, 0.000, 0.000, 20:38:22.731, 1561570702731
78, 13777.84, 14710.93, 17774.02, 21284.76, -480.27, 6731.76, 7486.14, -2837.91, 0.000, 0.000, 0.000, 20:38:22.731, 1561570702731
79, 14541.93, 17459.01, 19969.90, 22036.85, 1010.48, 7355.22, 8845.17, -1878.31, 0.000, 0.000, 0.000, 20:38:22.731, 1561570702731
80, 14942.05, 18867.24, 21436.73, 22525.42, 1592.96, 7696.33, 9523.07, -1264.97, 0.000, 0.000, 0.000, 20:38:22.731, 1561570702731
81, 14101.25, 15850.96, 19262.53, 21755.47, -266.39, 7021.04, 7915.20, -2330.68, 0.000, 0.000, 0.000, 20:38:22.732, 1561570702732
82, 13437.82, 13594.91, 17139.07, 21006.91, -1362.61, 6469.40, 6777.16, -3286.47, 0.000, 0.000, 0.000, 20:38:22.732, 1561570702732
83, 13772.79, 14687.62, 17754.97, 21281.81, -497.10, 6728.14, 7464.88, -2849.67, 0.000, 0.000, 0.000, 20:38:22.732, 1561570702732
84, 14532.70, 17434.90, 19943.66, 22028.25, 994.32, 7346.24, 8825.29, -1889.66, 0.000, 0.000, 0.000, 20:38:22.732, 1561570702732
85, 14933.71, 18864.04, 21426.18, 22515.98, 1584.76, 7687.61, 9513.64, -1268.26, 0.000, 0.000, 0.000, 20:38:22.732, 1561570702732
86, 14097.92, 15855.59, 19263.20, 21745.65, -267.10, 7019.21, 7906.44, -2335.56, 0.246, -0.094, -0.986, 20:38:22.732, 1561570702732
87, 13438.94, 13601.08, 17145.49, 20994.41, -1356.95, 6466.74, 6770.12, -3291.96, 0.000, 0.000, 0.000, 20:38:22.732, 1561570702732
88, 13774.08, 14695.47, 17762.35, 21270.23, -493.84, 6723.61, 7468.34, -2847.66, 0.000, 0.000, 0.000, 20:38:22.732, 1561570702732
89, 14532.52, 17433.06, 19945.85, 22015.53, 989.67, 7347.76, 8826.01, -1890.69, 0.000, 0.000, 0.000, 20:38:22.732, 1561570702732
90, 14944.24, 18879.98, 21441.96, 22515.78, 1598.84, 7698.12, 9525.60, -1263.50, 0.000, 0.000, 0.000, 20:38:22.789, 1561570702789
91, 14101.80, 15888.11, 19288.24, 21745.65, -251.01, 7019.88, 7925.53, -2324.11, 0.000, 0.000, 0.000, 20:38:22.789, 1561570702789
92, 13440.53, 13611.52, 17157.58, 20999.35, -1356.55, 6469.00, 6781.77, -3284.10, 0.000, 0.000, 0.000, 20:38:22.789, 1561570702789
93, 13774.31, 14698.31, 17763.47, 21274.19, -491.98, 6727.96, 7470.24, -2846.72, 0.000, 0.000, 0.000, 20:38:22.789, 1561570702789
94, 14534.00, 17437.56, 19945.89, 22023.66, 992.53, 7347.08, 8816.89, -1894.80, 0.000, 0.000, 0.000, 20:38:22.789, 1561570702789
95, 14940.04, 18881.70, 21436.15, 22520.16, 1590.80, 7692.29, 9513.51, -1270.00, 0.000, 0.000, 0.000, 20:38:22.789, 1561570702789
96, 14102.61, 15891.17, 19288.68, 21748.98, -253.63, 7017.37, 7925.68, -2320.94, 0.250, -0.094, -0.984, 20:38:22.789, 1561570702789
97, 13434.09, 13599.29, 17143.32, 20994.99, -1367.19, 6460.91, 6776.31, -3286.85, 0.000, 0.000, 0.000, 20:38:22.789, 1561570702789
98, 13765.12, 14671.93, 17740.20, 21263.64, -512.21, 6718.46, 7464.23, -2850.50, 0.000, 0.000, 0.000, 20:38:22.789, 1561570702789
99, 14521.75, 17399.63, 19911.34, 22004.84, 969.48, 7336.22, 8810.74, -1901.60, 0.000, 0.000, 0.000, 20:38:22.789, 1561570702789
100, 14941.96, 18888.86, 21436.19, 22511.65, 1597.30, 7692.17, 9527.61, -1260.26, 0.000, 0.000, 0.000, 20:38:22.789, 1561570702789
101, 14104.67, 15908.47, 19296.28, 21751.35, -249.40, 7019.99, 7931.43, -2313.90, 0.000, 0.000, 0.000, 20:38:22.789, 1561570702789
102, 13432.86, 13606.38, 17142.20, 20997.61, -1369.80, 6466.11, 6769.90, -3285.42, 0.000, 0.000, 0.000, 20:38:22.789, 1561570702789
103, 13764.52, 14678.48, 17738.54, 21267.66, -512.93, 6723.02, 7458.22, -2847.43, 0.000, 0.000, 0.000, 20:38:22.790, 1561570702790
104, 14523.51, 17408.88, 19913.93, 22008.09, 969.31, 7340.83, 8806.18, -1896.50, 0.000, 0.000, 0.000, 20:38:22.790, 1561570702790
105, 14944.11, 18887.98, 21432.80, 22511.29, 1592.96, 7695.64, 9517.77, -1263.37, 0.000, 0.000, 0.000, 20:38:22.849, 1561570702849
106, 14112.18, 15920.16, 19306.30, 21754.35, -238.54, 7024.39, 7933.93, -2311.22, 0.254, -0.092, -0.990, 20:38:22.850, 1561570702850
107, 13430.27, 13599.49, 17136.28, 20989.92, -1373.54, 6457.24, 6769.58, -3290.53, 0.000, 0.000, 0.000, 20:38:22.850, 1561570702850
108, 13754.24, 14652.98, 17714.25, 21251.84, -527.52, 6708.41, 7443.62, -2860.96, 0.000, 0.000, 0.000, 20:38:22.850, 1561570702850
109, 14517.37, 17386.17, 19893.97, 21999.86, 962.00, 7332.62, 8796.04, -1907.25, 0.000, 0.000, 0.000, 20:38:22.850, 1561570702850
110, 14935.64, 18883.67, 21425.02, 22505.08, 1591.02, 7688.69, 9519.29, -1269.40, 0.000, 0.000, 0.000, 20:38:22.850, 1561570702850
111, 14109.58, 15926.69, 19308.78, 21753.92, -238.94, 7025.00, 7939.09, -2311.08, 0.000, 0.000, 0.000, 20:38:22.850, 1561570702850
112, 13432.82, 13609.42, 17147.34, 20991.93, -1368.53, 6459.36, 6769.65, -3291.83, 0.000, 0.000, 0.000, 20:38:22.850, 1561570702850
113, 13753.05, 14656.73, 17719.41, 21249.31, -530.23, 6704.32, 7440.11, -2870.97, 0.000, 0.000, 0.000, 20:38:22.850, 1561570702850
114, 14520.70, 17391.73, 19897.84, 21998.38, 961.80, 7329.65, 8794.27, -1916.68, 0.000, 0.000, 0.000, 20:38:22.850, 1561570702850
115, 14954.10, 18917.89, 21457.29, 22516.21, 1618.53, 7697.83, 9537.94, -1259.10, 0.000, 0.000, 0.000, 20:38:22.850, 1561570702850
116, 14125.05, 15964.02, 19348.25, 21767.20, -212.39, 7034.72, 7963.41, -2296.08, 0.254, -0.096, -0.992, 20:38:22.850, 1561570702850
117, 13438.49, 13613.06, 17161.91, 20997.59, -1364.19, 6463.07, 6771.44, -3290.56, 0.000, 0.000, 0.000, 20:38:22.850, 1561570702850
118, 13757.92, 14653.92, 17727.75, 21258.56, -522.40, 6714.78, 7445.10, -2866.14, 0.000, 0.000, 0.000, 20:38:22.850, 1561570702850
119, 14511.76, 17377.45, 19894.30, 22000.62, 961.55, 7330.77, 8801.13, -1910.00, 0.000, 0.000, 0.000, 20:38:22.850, 1561570702850
120, 14941.45, 18896.14, 21439.99, 22514.53, 1604.39, 7694.01, 9529.08, -1263.70, 0.000, 0.000, 0.000, 20:38:22.911, 1561570702911
121, 14121.25, 15965.38, 19344.96, 21767.67, -218.51, 7033.24, 7958.07, -2298.01, 0.000, 0.000, 0.000, 20:38:22.911, 1561570702911
122, 13433.84, 13609.04, 17154.54, 20992.56, -1373.27, 6459.50, 6768.89, -3290.53, 0.000, 0.000, 0.000, 20:38:22.911, 1561570702911
123, 13755.44, 14647.14, 17718.65, 21253.04, -529.94, 6712.70, 7446.55, -2861.11, 0.000, 0.000, 0.000, 20:38:22.911, 1561570702911
124, 14514.08, 17368.04, 19884.25, 21996.73, 953.73, 7332.33, 8796.80, -1908.37, 0.000, 0.000, 0.000, 20:38:22.911, 1561570702911
125, 14945.69, 18900.17, 21441.83, 22511.87, 1607.16, 7693.18, 9532.82, -1258.00, 0.000, 0.000, 0.000, 20:38:22.911, 1561570702911
126, 14124.58, 15977.09, 19357.57, 21770.11, -206.11, 7038.03, 7968.24, -2286.07, 0.250, -0.098, -0.994, 20:38:22.911, 1561570702911
127, 13438.18, 13617.33, 17164.40, 21001.52, -1363.26, 6469.24, 6777.23, -3279.02, 0.000, 0.000, 0.000, 20:38:22.911, 1561570702911
128, 13750.10, 14639.36, 17711.23, 21249.69, -537.89, 6705.37, 7433.47, -2867.73, 0.000, 0.000, 0.000, 20:38:22.911, 1561570702911
129, 14506.48, 17356.96, 19868.67, 21992.46, 939.18, 7320.55, 8775.05, -1923.12, 0.000, 0.000, 0.000, 20:38:22.911, 1561570702911
130, 14939.75, 18894.29, 21426.00, 22514.11, 1594.91, 7690.14, 9518.27, -1269.87, 0.000, 0.000, 0.000, 20:38:22.911, 1561570702911
131, 14122.26, 15977.50, 19346.91, 21771.80, -216.45, 7032.91, 7960.71, -2294.21, 0.000, 0.000, 0.000, 20:38:22.911, 1561570702911
132, 13432.97, 13613.40, 17152.08, 20996.31, -1376.13, 6458.49, 6767.21, -3286.02, 0.000, 0.000, 0.000, 20:38:22.911, 1561570702911
133, 13742.81, 14619.60, 17694.06, 21243.79, -550.57, 6696.90, 7424.62, -2873.36, 0.000, 0.000, 0.000, 20:38:22.911, 1561570702911
134, 14494.01, 17324.37, 19840.10, 21976.23, 920.91, 7305.85, 8758.93, -1936.06, 0.000, 0.000, 0.000, 20:38:22.911, 1561570702911
135, 14938.65, 18903.38, 21433.89, 22505.93, 1604.27, 7683.03, 9526.13, -1267.59, 0.000, 0.000, 0.000, 20:38:22.970, 1561570702970
136, 14131.00, 16002.55, 19375.03, 21779.63, -194.46, 7039.77, 7983.48, -2280.95, 0.244, -0.098, -0.996, 20:38:22.970, 1561570702970
137, 13440.66, 13628.51, 17171.93, 21007.53, -1359.97, 6466.05, 6782.15, -3277.41, 0.000, 0.000, 0.000, 20:38:22.970, 1561570702970
138, 13749.03, 14637.96, 17712.15, 21254.27, -536.69, 6702.44, 7430.79, -2871.98, 0.000, 0.000, 0.000, 20:38:22.970, 1561570702970
139, 14494.19, 17331.14, 19853.13, 21981.00, 930.68, 7310.32, 8766.76, -1932.62, 0.000, 0.000, 0.000, 20:38:22.970, 1561570702970
140, 14937.04, 18903.72, 21439.32, 22505.19, 1609.21, 7684.93, 9524.86, -1268.51, 0.000, 0.000, 0.000, 20:38:22.970, 1561570702970
141, 14135.04, 16022.74, 19397.56, 21779.40, -176.49, 7041.34, 7987.84, -2273.57, 0.000, 0.000, 0.000, 20:38:22.970, 1561570702970
142, 13432.71, 13612.61, 17167.73, 20994.72, -1368.53, 6459.27, 6769.38, -3284.41, 0.000, 0.000, 0.000, 20:38:22.970, 1561570702970
143, 13739.33, 14607.71, 17690.36, 21237.62, -552.13, 6692.74, 7413.96, -2882.86, 0.000, 0.000, 0.000, 20:38:22.970, 1561570702970
144, 14488.91, 17313.28, 19834.51, 21973.24, 920.65, 7305.18, 8753.43, -1940.11, 0.000, 0.000, 0.000, 20:38:22.970, 1561570702970
145, 14937.58, 18899.16, 21427.90, 22502.91, 1604.39, 7685.60, 9518.42, -1273.62, 0.000, 0.000, 0.000, 20:38:22.970, 1561570702970
146, 14136.27, 16032.97, 19398.41, 21778.82, -179.08, 7042.68, 7989.83, -2271.99, 0.244, -0.094, -0.990, 20:38:22.970, 1561570702970
147, 13431.97, 13619.05, 17166.94, 20995.33, -1373.65, 6463.12, 6770.70, -3281.28, 0.000, 0.000, 0.000, 20:38:22.970, 1561570702970
148, 13735.30, 14603.58, 17685.57, 21235.99, -558.79, 6697.25, 7412.44, -2882.64, 0.000, 0.000, 0.000, 20:38:22.970, 1561570702970
149, 14487.17, 17304.68, 19828.12, 21969.91, 916.67, 7305.47, 8749.50, -1940.06, 0.000, 0.000, 0.000, 20:38:22.970, 1561570702970
150, 14938.18, 18905.51, 21433.00, 22498.79, 1609.91, 7684.24, 9525.51, -1267.08, 0.000, 0.000, 0.000, 20:38:23.030, 1561570703030
151, 14143.56, 16049.07, 19414.17, 21782.71, -169.56, 7052.53, 8001.83, -2260.92, 0.000, 0.000, 0.000, 20:38:23.030, 1561570703030
152, 13433.20, 13612.99, 17166.92, 20990.59, -1378.10, 6460.97, 6763.88, -3286.82, 0.000, 0.000, 0.000, 20:38:23.030, 1561570703030
153, 13731.91, 14581.92, 17669.08, 21228.50, -575.16, 6686.99, 7396.21, -2894.15, 0.000, 0.000, 0.000, 20:38:23.030, 1561570703030
154, 14483.48, 17280.29, 19810.46, 21963.34, 905.87, 7295.21, 8734.59, -1953.68, 0.000, 0.000, 0.000, 20:38:23.030, 1561570703030
155, 14940.96, 18908.84, 21435.68, 22502.89, 1610.40, 7681.69, 9519.50, -1270.52, 0.242, -0.090, -0.990, 20:38:23.031, 1561570703031
156, 14140.29, 16050.41, 19414.26, 21783.05, -172.64, 7044.31, 7996.27, -2265.89, 0.000, 0.000, 0.000, 20:38:23.031, 1561570703031
157, 13425.78, 13613.29, 17164.04, 20985.76, -1383.95, 6451.52, 6765.20, -3293.71, 0.000, 0.000, 0.000, 20:38:23.031, 1561570703031
158, 13725.29, 14584.42, 17668.74, 21223.41, -577.37, 6682.61, 7401.91, -2900.09, 0.000, 0.000, 0.000, 20:38:23.031, 1561570703031
159, 14476.40, 17286.62, 19811.45, 21957.37, 898.79, 7293.06, 8737.54, -1959.56, 0.000, 0.000, 0.000, 20:38:23.032, 1561570703032
160, 14936.69, 18914.00, 21436.51, 22500.74, 1606.33, 7681.49, 9519.16, -1275.93, 0.000, 0.000, 0.000, 20:38:23.032, 1561570703032
161, 14143.40, 16058.90, 19422.64, 21786.36, -171.24, 7051.04, 7990.08, -2271.76, 0.000, 0.000, 0.000, 20:38:23.032, 1561570703032
162, 13435.43, 13621.11, 17170.61, 20994.52, -1377.60, 6466.05, 6759.79, -3292.32, 0.000, 0.000, 0.000, 20:38:23.032, 1561570703032
163, 13736.40, 14583.91, 17671.38, 21231.56, -572.32, 6696.72, 7394.23, -2896.16, 0.000, 0.000, 0.000, 20:38:23.032, 1561570703032
164, 14485.58, 17272.18, 19799.31, 21964.68, 898.92, 7306.63, 8732.63, -1953.56, 0.000, 0.000, 0.000, 20:38:23.032, 1561570703032
165, 14952.94, 18939.04, 21452.51, 22514.42, 1627.12, 7701.20, 9544.31, -1253.66, 0.248, -0.102, -0.996, 20:38:23.091, 1561570703091
166, 14160.10, 16107.96, 19459.41, 21802.43, -144.50, 7067.98, 8028.97, -2238.80, 0.000, 0.000, 0.000, 20:38:23.092, 1561570703092
167, 13439.54, 13635.59, 17185.16, 21001.70, -1374.30, 6472.33, 6774.72, -3277.35, 0.000, 0.000, 0.000, 20:38:23.092, 1561570703092
168, 13729.20, 14580.40, 17661.37, 21230.83, -581.73, 6695.89, 7401.40, -2891.58, 0.000, 0.000, 0.000, 20:38:23.092, 1561570703092
169, 14475.32, 17263.19, 19782.01, 21959.81, 882.94, 7302.54, 8735.04, -1956.76, 0.000, 0.000, 0.000, 20:38:23.092, 1561570703092
170, 14949.49, 18937.36, 21441.83, 22512.18, 1619.79, 7701.02, 9538.09, -1261.73, 0.000, 0.000, 0.000, 20:38:23.092, 1561570703092
171, 14164.84, 16125.80, 19469.51, 21809.11, -133.71, 7073.46, 8034.65, -2235.11, 0.000, 0.000, 0.000, 20:38:23.092, 1561570703092
172, 13436.93, 13633.69, 17184.49, 20998.77, -1378.03, 6469.04, 6771.93, -3278.20, 0.000, 0.000, 0.000, 20:38:23.092, 1561570703092
173, 13724.22, 14555.34, 17646.99, 21222.78, -595.43, 6691.35, 7386.94, -2899.40, 0.000, 0.000, 0.000, 20:38:23.092, 1561570703092
174, 14468.40, 17239.10, 19766.38, 21950.96, 872.46, 7296.97, 8718.54, -1964.25, 0.000, 0.000, 0.000, 20:38:23.092, 1561570703092
175, 14941.83, 18922.05, 21433.06, 22505.12, 1615.85, 7696.20, 9534.76, -1261.42, 0.246, -0.100, -1.004, 20:38:23.094, 1561570703094
176, 14163.54, 16120.73, 19468.10, 21808.13, -135.56, 7071.44, 8038.65, -2231.53, 0.000, 0.000, 0.000, 20:38:23.094, 1561570703094
177, 13442.43, 13639.59, 17194.71, 21005.56, -1370.97, 6474.05, 6782.93, -3268.67, 0.000, 0.000, 0.000, 20:38:23.094, 1561570703094
178, 13726.41, 14569.04, 17664.94, 21226.89, -585.66, 6690.99, 7399.32, -2891.67, 0.000, 0.000, 0.000, 20:38:23.094, 1561570703094
179, 14463.48, 17234.29, 19770.34, 21947.69, 872.25, 7288.23, 8721.52, -1968.88, 0.000, 0.000, 0.000, 20:38:23.094, 1561570703094
180, 14944.17, 18923.10, 21439.75, 22507.49, 1616.66, 7696.53, 9540.60, -1267.48, 0.000, 0.000, 0.000, 20:38:23.150, 1561570703150
181, 14167.34, 16140.15, 19487.88, 21809.42, -127.05, 7073.72, 8054.25, -2228.49, 0.000, 0.000, 0.000, 20:38:23.151, 1561570703151
182, 13435.01, 13628.28, 17190.28, 20992.78, -1383.55, 6464.97, 6771.01, -3281.33, 0.000, 0.000, 0.000, 20:38:23.151, 1561570703151
183, 13722.50, 14546.98, 17646.39, 21210.40, -600.41, 6680.29, 7379.96, -2910.33, 0.000, 0.000, 0.000, 20:38:23.151, 1561570703151
184, 14471.82, 17230.04, 19763.88, 21944.76, 873.60, 7291.30, 8721.58, -1970.62, 0.000, 0.000, 0.000, 20:38:23.151, 1561570703151
185, 14949.99, 18933.11, 21441.71, 22512.65, 1627.72, 7702.99, 9547.01, -1262.34, 0.246, -0.096, -0.998, 20:38:23.151, 1561570703151
186, 14179.88, 16165.32, 19507.53, 21823.19, -104.74, 7085.37, 8068.53, -2218.72, 0.000, 0.000, 0.000, 20:38:23.151, 1561570703151
187, 13441.67, 13640.06, 17199.29, 21001.94, -1375.82, 6471.86, 6778.37, -3280.90, 0.000, 0.000, 0.000, 20:38:23.151, 1561570703151
188, 13715.37, 14536.19, 17639.75, 21210.33, -602.18, 6681.61, 7378.13, -2912.01, 0.000, 0.000, 0.000, 20:38:23.151, 1561570703151
189, 14462.67, 17213.50, 19754.47, 21937.05, 871.63, 7288.86, 8712.73, -1971.29, 0.000, 0.000, 0.000, 20:38:23.151, 1561570703151
190, 14944.96, 18925.74, 21437.24, 22496.87, 1625.33, 7694.81, 9540.51, -1265.09, 0.000, 0.000, 0.000, 20:38:23.151, 1561570703151
191, 14176.39, 16172.09, 19511.64, 21814.18, -107.60, 7080.43, 8067.48, -2213.54, 0.000, 0.000, 0.000, 20:38:23.151, 1561570703151
192, 13439.52, 13637.20, 17197.19, 20998.23, -1384.56, 6473.40, 6775.80, -3271.47, 0.000, 0.000, 0.000, 20:38:23.151, 1561570703151
193, 13709.33, 14513.99, 17618.40, 21200.38, -627.06, 6675.77, 7361.61, -2919.12, 0.000, 0.000, 0.000, 20:38:23.151, 1561570703151
194, 14456.73, 17190.59, 19730.02, 21932.69, 849.52, 7284.03, 8694.47, -1983.74, 0.000, 0.000, 0.000, 20:38:23.151, 1561570703151
195, 14944.80, 18925.45, 21434.29, 22501.66, 1623.92, 7695.95, 9542.54, -1265.71, 0.248, -0.092, -0.990, 20:38:23.210, 1561570703210
196, 14176.66, 16173.48, 19515.24, 21817.58, -109.23, 7079.89, 8067.71, -2217.05, 0.000, 0.000, 0.000, 20:38:23.210, 1561570703210
197, 13432.79, 13636.82, 17196.34, 20997.18, -1390.41, 6463.16, 6767.84, -3286.02, 0.000, 0.000, 0.000, 20:38:23.210, 1561570703210
198, 13707.12, 14522.04, 17625.00, 21207.85, -624.13, 6672.20, 7360.79, -2924.32, 0.000, 0.000, 0.000, 20:38:23.210, 1561570703210
199, 14453.00, 17189.01, 19726.60, 21933.79, 846.10, 7278.09, 8693.22, -1990.29, 0.000, 0.000, 0.000, 20:38:23.210, 1561570703210
200, 14945.96, 18945.18, 21445.31, 22504.61, 1631.39, 7693.94, 9546.61, -1265.89, 0.000, 0.000, 0.000, 20:38:23.210, 1561570703210
201, 14191.03, 16217.40, 19550.31, 21835.22, -87.44, 7094.67, 8090.50, -2201.07, 0.000, 0.000, 0.000, 20:38:23.210, 1561570703210
202, 13436.93, 13646.99, 17208.34, 21005.34, -1387.37, 6470.70, 6779.93, -3277.08, 0.000, 0.000, 0.000, 20:38:23.210, 1561570703210
203, 13710.92, 14525.01, 17629.36, 21216.03, -619.28, 6681.47, 7373.71, -2917.62, 0.000, 0.000, 0.000, 20:38:23.210, 1561570703210
204, 14450.67, 17182.14, 19721.23, 21933.45, 841.72, 7278.20, 8694.25, -1991.99, 0.000, 0.000, 0.000, 20:38:23.210, 1561570703210
205, 14941.81, 18934.25, 21433.82, 22501.43, 1621.78, 7688.02, 9539.79, -1274.59, 0.248, -0.092, -0.994, 20:38:23.210, 1561570703210
206, 14185.33, 16212.03, 19543.31, 21827.57, -90.12, 7087.02, 8087.71, -2204.35, 0.000, 0.000, 0.000, 20:38:23.210, 1561570703210
207, 13433.53, 13640.98, 17202.35, 20995.98, -1385.85, 6467.07, 6776.98, -3278.64, 0.000, 0.000, 0.000, 20:38:23.210, 1561570703210
208, 13705.78, 14517.57, 17620.53, 21204.92, -623.19, 6678.77, 7373.08, -2917.44, 0.000, 0.000, 0.000, 20:38:23.210, 1561570703210
209, 14450.65, 17183.71, 19718.48, 21932.00, 843.51, 7286.62, 8705.54, -1981.21, 0.000, 0.000, 0.000, 20:38:23.210, 1561570703210
210, 14940.15, 18939.01, 21431.75, 22495.98, 1622.69, 7693.20, 9551.21, -1264.91, 0.000, 0.000, 0.000, 20:38:23.270, 1561570703270
211, 14185.53, 16232.66, 19553.13, 21828.40, -82.99, 7089.08, 8102.02, -2193.53, 0.000, 0.000, 0.000, 20:38:23.270, 1561570703270
212, 13435.68, 13650.68, 17208.23, 21000.94, -1385.70, 6467.86, 6785.48, -3270.53, 0.000, 0.000, 0.000, 20:38:23.270, 1561570703270
213, 13700.75, 14505.59, 17609.22, 21200.21, -636.69, 6671.64, 7365.30, -2922.47, 0.000, 0.000, 0.000, 20:38:23.270, 1561570703270
214, 14445.46, 17163.21, 19706.77, 21928.02, 831.66, 7278.24, 8692.57, -1990.07, 0.000, 0.000, 0.000, 20:38:23.270, 1561570703270
215, 14941.00, 18933.83, 21433.80, 22501.48, 1621.60, 7692.35, 9543.75, -1268.62, 0.248, -0.092, -0.990, 20:38:23.270, 1561570703270
216, 14189.96, 16227.88, 19556.59, 21832.67, -84.51, 7090.76, 8093.88, -2199.08, 0.000, 0.000, 0.000, 20:38:23.270, 1561570703270
217, 13435.99, 13648.18, 17209.08, 21000.94, -1385.23, 6467.88, 6782.57, -3274.75, 0.000, 0.000, 0.000, 20:38:23.270, 1561570703270
218, 13703.36, 14502.08, 17610.74, 21204.32, -633.94, 6671.50, 7366.26, -2925.84, 0.000, 0.000, 0.000, 20:38:23.270, 1561570703270
219, 14442.69, 17147.43, 19690.79, 21919.55, 818.25, 7270.08, 8679.03, -2004.73, 0.000, 0.000, 0.000, 20:38:23.270, 1561570703270
220, 14942.88, 18941.40, 21432.89, 22494.64, 1619.16, 7688.17, 9542.41, -1273.42, 0.000, 0.000, 0.000, 20:38:23.270, 1561570703270
221, 14194.05, 16257.45, 19575.01, 21834.28, -74.57, 7091.63, 8103.42, -2193.26, 0.000, 0.000, 0.000, 20:38:23.270, 1561570703270
222, 13439.30, 13661.59, 17218.29, 20999.60, -1387.86, 6467.30, 6774.14, -3278.15, 0.000, 0.000, 0.000, 20:38:23.270, 1561570703270
223, 13701.66, 14504.85, 17608.50, 21195.20, -642.48, 6666.16, 7349.59, -2930.02, 0.000, 0.000, 0.000, 20:38:23.270, 1561570703270
224, 14439.32, 17155.25, 19697.65, 21916.46, 824.09, 7265.95, 8675.52, -2000.88, 0.000, 0.000, 0.000, 20:38:23.270, 1561570703270
225, 14943.68, 18950.63, 21442.88, 22495.00, 1629.38, 7687.68, 9542.47, -1270.76, 0.244, -0.094, -0.992, 20:38:23.331, 1561570703331
226, 14203.77, 16286.40, 19600.45, 21842.28, -56.04, 7099.36, 8115.05, -2182.27, 0.000, 0.000, 0.000, 20:38:23.331, 1561570703331
227, 13437.29, 13669.46, 17225.26, 21005.28, -1386.23, 6468.77, 6774.30, -3272.54, 0.000, 0.000, 0.000, 20:38:23.331, 1561570703331
228, 13698.00, 14499.87, 17604.19, 21200.05, -646.68, 6666.27, 7345.74, -2932.30, 0.000, 0.000, 0.000, 20:38:23.331, 1561570703331
229, 14436.83, 17137.95, 19682.61, 21918.63, 811.90, 7264.38, 8666.58, -2012.10, 0.000, 0.000, 0.000, 20:38:23.331, 1561570703331
230, 14942.72, 18946.50, 21436.19, 22501.81, 1626.40, 7691.93, 9546.74, -1277.20, 0.000, 0.000, 0.000, 20:38:23.331, 1561570703331
231, 14203.88, 16285.79, 19601.14, 21853.12, -55.59, 7108.37, 8124.70, -2180.19, 0.000, 0.000, 0.000, 20:38:23.331, 1561570703331
232, 13442.52, 13665.83, 17224.16, 21012.61, -1386.77, 6476.17, 6784.63, -3274.17, 0.000, 0.000, 0.000, 20:38:23.331, 1561570703331
233, 13702.27, 14494.01, 17604.79, 21200.61, -645.54, 6669.49, 7357.93, -2933.44, 0.000, 0.000, 0.000, 20:38:23.331, 1561570703331
234, 14436.52, 17127.05, 19677.47, 21916.98, 809.29, 7267.83, 8675.81, -2011.41, 0.000, 0.000, 0.000, 20:38:23.332, 1561570703332
235, 14948.87, 18951.73, 21440.98, 22505.61, 1626.49, 7697.83, 9552.91, -1274.72, 0.246, -0.090, -1.000, 20:38:23.332, 1561570703332
236, 14214.01, 16312.57, 19621.43, 21857.61, -46.56, 7112.12, 8137.22, -2170.49, 0.000, 0.000, 0.000, 20:38:23.332, 1561570703332
237, 13445.51, 13672.61, 17232.99, 21012.38, -1387.17, 6478.00, 6791.94, -3266.80, 0.000, 0.000, 0.000, 20:38:23.332, 1561570703332
238, 13701.35, 14483.30, 17594.02, 21200.36, -658.73, 6670.97, 7349.41, -2936.06, 0.000, 0.000, 0.000, 20:38:23.332, 1561570703332
239, 14437.48, 17115.09, 19663.28, 21918.39, 796.39, 7268.00, 8659.83, -2016.57, 0.000, 0.000, 0.000, 20:38:23.332, 1561570703332
240, 14944.40, 18938.52, 21423.88, 22503.49, 1619.43, 7695.75, 9542.83, -1278.34, 0.000, 0.000, 0.000, 20:38:23.390, 1561570703390
241, 14218.26, 16316.55, 19622.95, 21862.71, -38.47, 7119.05, 8138.14, -2167.99, 0.000, 0.000, 0.000, 20:38:23.391, 1561570703391
242, 13444.31, 13671.87, 17230.36, 21013.57, -1386.75, 6482.85, 6784.18, -3268.03, 0.000, 0.000, 0.000, 20:38:23.391, 1561570703391
243, 13694.71, 14468.28, 17578.71, 21197.34, -667.62, 6673.74, 7336.83, -2940.75, 0.000, 0.000, 0.000, 20:38:23.391, 1561570703391
244, 14427.80, 17087.68, 19634.55, 21908.78, 783.76, 7265.57, 8646.01, -2025.05, 0.000, 0.000, 0.000, 20:38:23.391, 1561570703391
245, 14950.90, 18965.70, 21437.96, 22507.78, 1636.73, 7702.21, 9554.45, -1265.58, 0.246, -0.092, -0.996, 20:38:23.391, 1561570703391
246, 14215.73, 16333.60, 19632.41, 21864.34, -35.96, 7115.39, 8142.16, -2159.29, 0.000, 0.000, 0.000, 20:38:23.391, 1561570703391
247, 13442.96, 13683.49, 17235.90, 21012.99, -1386.28, 6475.14, 6785.83, -3262.77, 0.000, 0.000, 0.000, 20:38:23.391, 1561570703391
248, 13693.57, 14492.16, 17595.56, 21198.26, -660.85, 6664.08, 7347.29, -2929.98, 0.000, 0.000, 0.000, 20:38:23.391, 1561570703391
249, 14423.78, 17100.16, 19644.93, 21905.80, 786.87, 7255.78, 8655.71, -2015.14, 0.000, 0.000, 0.000, 20:38:23.391, 1561570703391
250, 14946.43, 18957.32, 21433.96, 22501.50, 1633.49, 7697.25, 9552.29, -1267.61, 0.000, 0.000, 0.000, 20:38:23.391, 1561570703391
251, 14225.72, 16361.79, 19658.11, 21872.79, -17.19, 7128.15, 8164.22, -2144.49, 0.000, 0.000, 0.000, 20:38:23.391, 1561570703391
252, 13444.66, 13681.30, 17243.77, 21018.80, -1385.99, 6483.39, 6792.11, -3255.62, 0.000, 0.000, 0.000, 20:38:23.391, 1561570703391
253, 13685.37, 14456.66, 17571.02, 21192.00, -675.16, 6662.18, 7331.66, -2939.72, 0.000, 0.000, 0.000, 20:38:23.391, 1561570703391
254, 14411.47, 17071.52, 19621.12, 21898.25, 770.80, 7250.19, 8639.33, -2026.32, 0.000, 0.000, 0.000, 20:38:23.391, 1561570703391
255, 14938.79, 18951.04, 21427.74, 22498.10, 1627.18, 7693.72, 9550.59, -1266.03, 0.246, -0.092, -0.998, 20:38:23.450, 1561570703450
0, 14221.45, 16371.45, 19666.54, 21870.64, -13.23, 7126.54, 8164.38, -2138.21, 0.000, 0.000, 0.000, 20:38:23.450, 1561570703450
1, 13436.10, 13680.70, 17243.77, 21012.52, -1393.79, 6479.73, 6784.85, -3255.06, 0.000, 0.000, 0.000, 20:38:23.450, 1561570703450
2, 13675.60, 14447.00, 17565.70, 21184.69, -689.80, 6657.51, 7324.02, -2941.22, 0.000, 0.000, 0.000, 20:38:23.450, 1561570703450
3, 14408.36, 17063.23, 19618.64, 21895.23, 763.07, 7247.80, 8629.52, -2026.28, 0.000, 0.000, 0.000, 20:38:23.450, 1561570703450
4, 14941.31, 18951.42, 21428.59, 22496.87, 1625.62, 7692.33, 9547.84, -1266.49, 0.000, 0.000, 0.000, 20:38:23.450, 1561570703450
5, 14233.77, 16393.64, 19684.87, 21881.55, -1.88, 7131.70, 8181.45, -2124.49, 0.000, 0.000, 0.000, 20:38:23.450, 1561570703450
6, 13445.89, 13684.94, 17251.28, 21018.78, -1392.09, 6479.84, 6792.36, -3248.09, 0.000, 0.000, 0.000, 20:38:23.450, 1561570703450
7, 13677.50, 14423.00, 17550.41, 21181.23, -700.75, 6649.98, 7312.22, -2952.98, 0.000, 0.000, 0.000, 20:38:23.450, 1561570703450
8, 14404.27, 17035.13, 19593.20, 21889.73, 748.58, 7237.65, 8615.17, -2042.73, 0.000, 0.000, 0.000, 20:38:23.450, 1561570703450
9, 14944.44, 18954.68, 21427.79, 22506.35, 1630.96, 7691.77, 9545.02, -1271.86, 0.242, -0.090, -1.002, 20:38:23.450, 1561570703450
10, 14233.95, 16393.44, 19686.92, 21884.88, -0.67, 7128.22, 8171.62, -2136.29, 0.000, 0.000, 0.000, 20:38:23.450, 1561570703450
11, 13441.47, 13684.34, 17249.42, 21018.26, -1395.78, 6476.62, 6774.88, -3263.18, 0.000, 0.000, 0.000, 20:38:23.450, 1561570703450
12, 13674.33, 14433.33, 17553.12, 21188.40, -699.68, 6652.64, 7307.52, -2954.57, 0.000, 0.000, 0.000, 20:38:23.450, 1561570703450
13, 14410.37, 17043.14, 19595.82, 21900.37, 749.72, 7245.23, 8621.94, -2042.68, 0.000, 0.000, 0.000, 20:38:23.450, 1561570703450
14, 14943.66, 18966.48, 21428.39, 22506.62, 1629.87, 7689.45, 9549.80, -1276.82, 0.000, 0.000, 0.000, 20:38:23.510, 1561570703510
15, 14242.33, 16431.57, 19713.75, 21899.54, 18.42, 7137.38, 8187.69, -2126.81, 0.000, 0.000, 0.000, 20:38:23.510, 1561570703510
16, 13440.35, 13691.69, 17258.88, 21024.18, -1390.90, 6479.08, 6776.89, -3265.37, 0.000, 0.000, 0.000, 20:38:23.511, 1561570703511
17, 13672.63, 14426.89, 17551.75, 21188.29, -699.86, 6655.41, 7310.03, -2960.40, 0.000, 0.000, 0.000, 20:38:23.511, 1561570703511
18, 14404.92, 17032.59, 19593.99, 21897.53, 752.83, 7247.02, 8622.95, -2044.78, 0.242, -0.094, -0.998, 20:38:23.511, 1561570703511
19, 14941.83, 18959.29, 21430.49, 22506.57, 1637.20, 7693.58, 9558.79, -1273.54, 0.000, 0.000, 0.000, 20:38:23.511, 1561570703511
20, 14238.04, 16433.05, 19717.17, 21896.84, 20.00, 7137.56, 8197.93, -2122.34, 0.000, 0.000, 0.000, 20:38:23.511, 1561570703511
21, 13437.51, 13690.08, 17258.03, 21026.67, -1395.80, 6480.33, 6783.49, -3260.85, 0.000, 0.000, 0.000, 20:38:23.511, 1561570703511
22, 13665.95, 14411.93, 17537.27, 21186.08, -713.98, 6650.43, 7296.23, -2965.94, 0.000, 0.000, 0.000, 20:38:23.511, 1561570703511
23, 14403.71, 17028.56, 19585.40, 21897.00, 745.63, 7243.06, 8614.72, -2049.45, 0.000, 0.000, 0.000, 20:38:23.511, 1561570703511
24, 14941.58, 18959.82, 21423.99, 22504.45, 1627.81, 7691.03, 9549.96, -1283.17, 0.000, 0.000, 0.000, 20:38:23.511, 1561570703511
25, 14248.05, 16458.39, 19730.46, 21899.23, 25.06, 7142.34, 8207.58, -2118.54, 0.000, 0.000, 0.000, 20:38:23.511, 1561570703511
26, 13443.70, 13702.31, 17265.18, 21020.05, -1398.50, 6480.64, 6789.14, -3258.68, 0.000, 0.000, 0.000, 20:38:23.511, 1561570703511
27, 13667.89, 14412.31, 17537.69, 21173.52, -722.83, 6645.75, 7308.35, -2966.21, 0.000, 0.000, 0.000, 20:38:23.511, 1561570703511
28, 14386.16, 16993.27, 19559.18, 21870.33, 715.52, 7223.97, 8608.89, -2064.79, 0.242, -0.098, -0.992, 20:38:23.511, 1561570703511
29, 14931.08, 18942.75, 21410.65, 22489.16, 1619.45, 7681.76, 9551.15, -1292.06, 0.000, 0.000, 0.000, 20:38:23.571, 1561570703571
30, 14236.47, 16436.22, 19718.84, 21887.81, 20.99, 7134.16, 8208.50, -2124.73, 0.000, 0.000, 0.000, 20:38:23.571, 1561570703571
31, 13435.88, 13686.24, 17256.73, 21015.76, -1394.19, 6475.43, 6791.94, -3259.31, 0.000, 0.000, 0.000, 20:38:23.571, 1561570703571
32, 13656.02, 14389.38, 17524.37, 21168.44, -719.64, 6640.77, 7301.15, -2967.62, 0.000, 0.000, 0.000, 20:38:23.571, 1561570703571
33, 14376.44, 16968.97, 19540.54, 21865.44, 717.87, 7221.69, 8602.45, -2063.65, 0.000, 0.000, 0.000, 20:38:23.571, 1561570703571
34, 14929.65, 18951.35, 21414.83, 22490.06, 1631.86, 7683.84, 9565.16, -1274.52, 0.000, 0.000, 0.000, 20:38:23.571, 1561570703571
35, 14247.47, 16481.10, 19754.18, 21902.99, 43.68, 7144.58, 8229.08, -2098.43, 0.000, 0.000, 0.000, 20:38:23.571, 1561570703571
36, 13439.32, 13699.96, 17269.87, 21018.82, -1398.59, 6474.83, 6790.04, -3252.65, 0.000, 0.000, 0.000, 20:38:23.571, 1561570703571
37, 13657.12, 14392.53, 17522.40, 21166.74, -730.10, 6638.87, 7293.35, -2968.85, 0.000, 0.000, 0.000, 20:38:23.571, 1561570703571
38, 14382.83, 16979.01, 19543.27, 21869.13, 714.32, 7225.74, 8596.06, -2061.37, 0.248, -0.096, -0.992, 20:38:23.571, 1561570703571
39, 14927.05, 18943.57, 21399.80, 22483.02, 1616.17, 7678.79, 9542.14, -1285.76, 0.000, 0.000, 0.000, 20:38:23.571, 1561570703571
40, 14246.42, 16483.70, 19748.28, 21896.97, 42.00, 7141.90, 8220.52, -2100.77, 0.000, 0.000, 0.000, 20:38:23.571, 1561570703571
41, 13441.09, 13702.40, 17271.66, 21019.38, -1391.73, 6481.63, 6787.24, -3249.59, 0.000, 0.000, 0.000, 20:38:23.571, 1561570703571
42, 13655.26, 14386.16, 17521.22, 21166.27, -726.97, 6642.67, 7289.15, -2969.07, 0.000, 0.000, 0.000, 20:38:23.571, 1561570703571
43, 14374.81, 16962.25, 19531.20, 21863.56, 708.33, 7219.88, 8587.72, -2069.41, 0.000, 0.000, 0.000, 20:38:23.571, 1561570703571
44, 14930.70, 18948.91, 21409.84, 22486.53, 1630.18, 7680.60, 9550.10, -1282.48, 0.000, 0.000, 0.000, 20:38:23.631, 1561570703631
45, 14255.56, 16503.77, 19771.93, 21905.87, 60.26, 7144.18, 8233.00, -2094.74, 0.000, 0.000, 0.000, 20:38:23.631, 1561570703631
46, 13439.23, 13700.70, 17273.65, 21015.82, -1398.77, 6470.36, 6781.43, -3256.58, 0.000, 0.000, 0.000, 20:38:23.631, 1561570703631
47, 13652.69, 14372.46, 17509.44, 21160.24, -741.09, 6629.46, 7269.79, -2984.34, 0.000, 0.000, 0.000, 20:38:23.631, 1561570703631
48, 14378.50, 16954.87, 19524.61, 21864.54, 703.34, 7216.51, 8571.16, -2077.57, 0.248, -0.098, -0.996, 20:38:23.631, 1561570703631
49, 14929.94, 18941.09, 21396.83, 22486.08, 1615.23, 7678.29, 9537.33, -1289.96, 0.000, 0.000, 0.000, 20:38:23.631, 1561570703631
50, 14259.38, 16506.63, 19766.34, 21906.86, 52.15, 7147.35, 8232.24, -2091.94, 0.000, 0.000, 0.000, 20:38:23.631, 1561570703631
51, 13444.51, 13710.72, 17274.72, 21023.20, -1398.82, 6479.64, 6783.35, -3252.83, 0.000, 0.000, 0.000, 20:38:23.631, 1561570703631
52, 13648.94, 14369.33, 17499.02, 21159.21, -749.16, 6633.57, 7265.84, -2987.94, 0.000, 0.000, 0.000, 20:38:23.631, 1561570703631
53, 14368.19, 16936.21, 19502.77, 21856.34, 691.29, 7215.21, 8566.26, -2088.19, 0.000, 0.000, 0.000, 20:38:23.631, 1561570703631
54, 14939.19, 18964.87, 21416.68, 22496.36, 1640.98, 7690.14, 9554.16, -1284.49, 0.000, 0.000, 0.000, 20:38:23.632, 1561570703632
55, 14269.42, 16542.37, 19803.24, 21921.38, 82.88, 7160.25, 8253.90, -2082.00, 0.000, 0.000, 0.000, 20:38:23.632, 1561570703632
56, 13448.80, 13723.28, 17293.90, 21029.01, -1385.92, 6486.57, 6796.67, -3248.09, 0.000, 0.000, 0.000, 20:38:23.632, 1561570703632
57, 13650.99, 14370.76, 17508.81, 21161.16, -742.50, 6633.48, 7282.35, -2983.82, 0.000, 0.000, 0.000, 20:38:23.632, 1561570703632
58, 14356.77, 16920.18, 19492.80, 21842.71, 678.22, 7200.37, 8566.86, -2094.69, 0.242, -0.096, -0.996, 20:38:23.632, 1561570703632
59, 14928.26, 18948.45, 21398.80, 22481.58, 1624.32, 7679.03, 9555.93, -1290.25, 0.000, 0.000, 0.000, 20:38:23.690, 1561570703690
60, 14267.68, 16548.56, 19804.03, 21915.97, 82.70, 7158.35, 8265.07, -2079.54, 0.000, 0.000, 0.000, 20:38:23.691, 1561570703691
61, 13449.42, 13720.28, 17294.44, 21028.30, -1386.17, 6488.17, 6805.50, -3243.06, 0.000, 0.000, 0.000, 20:38:23.691, 1561570703691
62, 13652.31, 14361.26, 17502.78, 21162.65, -744.89, 6639.45, 7278.38, -2982.93, 0.000, 0.000, 0.000, 20:38:23.692, 1561570703692
63, 14366.16, 16918.95, 19494.05, 21852.85, 685.71, 7214.83, 8569.01, -2087.63, 0.000, 0.000, 0.000, 20:38:23.692, 1561570703692
64, 14931.95, 18950.32, 21400.12, 22484.20, 1627.59, 7685.87, 9556.89, -1285.99, 0.000, 0.000, 0.000, 20:38:23.692, 1561570703692
65, 14276.86, 16573.82, 19823.56, 21922.46, 98.88, 7167.09, 8281.08, -2066.37, 0.000, 0.000, 0.000, 20:38:23.692, 1561570703692
66, 13445.24, 13723.61, 17294.26, 21022.98, -1391.91, 6484.82, 6799.27, -3245.79, 0.000, 0.000, 0.000, 20:38:23.692, 1561570703692
67, 13643.01, 14345.93, 17489.21, 21153.27, -758.64, 6633.48, 7267.67, -2989.52, 0.000, 0.000, 0.000, 20:38:23.692, 1561570703692
68, 14367.23, 16911.78, 19483.52, 21856.23, 679.78, 7216.55, 8564.94, -2087.34, 0.242, -0.098, -0.986, 20:38:23.692, 1561570703692
69, 14930.63, 18943.15, 21387.00, 22486.10, 1617.64, 7682.52, 9547.46, -1294.19, 0.000, 0.000, 0.000, 20:38:23.692, 1561570703692
70, 14277.87, 16573.04, 19818.38, 21926.14, 92.47, 7165.81, 8274.44, -2072.12, 0.000, 0.000, 0.000, 20:38:23.692, 1561570703692
71, 13450.12, 13726.90, 17299.42, 21030.55, -1387.62, 6483.64, 6796.85, -3246.26, 0.000, 0.000, 0.000, 20:38:23.692, 1561570703692
72, 13646.95, 14341.35, 17489.46, 21157.20, -759.36, 6626.20, 7255.89, -2994.75, 0.000, 0.000, 0.000, 20:38:23.692, 1561570703692
73, 14357.60, 16880.89, 19462.15, 21844.00, 663.38, 7199.03, 8540.06, -2104.33, 0.000, 0.000, 0.000, 20:38:23.692, 1561570703692
0, 13857.52, 15373.02, 18817.55, 21561.50, -692.43, 6853.18, 7598.48, -2579.21, 0.244, -0.092, -0.988, 20:38:25.795, 1561570705795
1, 13349.11, 13625.09, 17068.93, 20960.10, -1450.34, 6429.10, 6763.21, -3322.92, 0.000, 0.000, 0.000, 20:38:25.795, 1561570705795
2, 13769.19, 15026.21, 17968.54, 21328.21, -445.89, 6758.32, 7603.01, -2766.56, 0.000, 0.000, 0.000, 20:38:25.795, 1561570705795
3, 14551.32, 17838.05, 20258.26, 22098.65, 1042.95, 7390.89, 8978.52, -1789.19, 0.000, 0.000, 0.000, 20:38:25.795, 1561570705795
4, 14807.14, 18715.00, 21334.56, 22453.09, 1314.60, 7612.20, 9388.63, -1349.02, 0.000, 0.000, 0.000, 20:38:25.795, 1561570705795
5, 13864.43, 15391.39, 18835.43, 21567.69, -681.37, 6861.11, 7618.99, -2566.92, 0.000, 0.000, 0.000, 20:38:25.795, 1561570705795
6, 13348.62, 13615.32, 17068.04, 20960.15, -1453.13, 6431.56, 6761.63, -3323.91, 0.000, 0.000, 0.000, 20:38:25.795, 1561570705795
7, 13770.64, 15012.24, 17963.07, 21330.04, -446.72, 6763.35, 7598.43, -2765.98, 0.238, -0.090, -0.992, 20:38:25.795, 1561570705795
8, 14542.07, 17815.93, 20240.51, 22090.74, 1030.95, 7389.06, 8968.84, -1793.97, 0.000, 0.000, 0.000, 20:38:25.795, 1561570705795
9, 14799.20, 18710.96, 21327.59, 22447.90, 1311.58, 7611.33, 9390.10, -1349.29, 0.000, 0.000, 0.000, 20:38:25.795, 1561570705795
10, 13866.55, 15404.75, 18849.47, 21573.14, -667.31, 6866.39, 7634.31, -2554.27, 0.000, 0.000, 0.000, 20:38:25.795, 1561570705795
11, 13345.13, 13610.25, 17065.02, 20960.53, -1454.03, 6431.58, 6762.92, -3323.41, 0.000, 0.000, 0.000, 20:38:25.795, 1561570705795
12, 13756.07, 14992.14, 17939.69, 21315.83, -463.11, 6748.64, 7590.58, -2778.08, 0.000, 0.000, 0.000, 20:38:25.795, 1561570705795
13, 14541.58, 17809.58, 20232.98, 22085.15, 1029.48, 7383.52, 8969.91, -1797.50, 0.000, 0.000, 0.000, 20:38:25.795, 1561570705795
14, 14810.98, 18725.42, 21341.85, 22456.64, 1326.87, 7620.94, 9402.98, -1341.42, 0.000, 0.000, 0.000, 20:38:25.795, 1561570705795
15, 13871.58, 15416.22, 18859.98, 21577.79, -665.32, 6870.32, 7634.71, -2552.95, 0.000, 0.000, 0.000, 20:38:25.856, 1561570705856
16, 13341.29, 13599.81, 17058.43, 20955.72, -1467.88, 6425.19, 6750.96, -3330.99, 0.240, -0.092, -0.990, 20:38:25.856, 1561570705856
17, 13755.55, 14970.82, 17925.63, 21314.53, -478.91, 6744.73, 7573.73, -2789.32, 0.000, 0.000, 0.000, 20:38:25.856, 1561570705856
18, 14532.84, 17786.02, 20209.71, 22083.48, 1014.05, 7372.63, 8951.43, -1812.66, 0.000, 0.000, 0.000, 20:38:25.856, 1561570705856
19, 14801.86, 18722.45, 21332.15, 22452.84, 1319.96, 7608.33, 9390.41, -1351.97, 0.000, 0.000, 0.000, 20:38:25.857, 1561570705857
20, 13865.17, 15417.85, 18857.36, 21571.38, -668.74, 6861.34, 7627.00, -2560.08, 0.000, 0.000, 0.000, 20:38:25.857, 1561570705857
21, 13340.30, 13608.81, 17066.18, 20953.84, -1461.00, 6422.73, 6754.05, -3327.26, 0.000, 0.000, 0.000, 20:38:25.857, 1561570705857
22, 13746.93, 14965.79, 17923.82, 21306.62, -483.49, 6733.95, 7564.34, -2791.58, 0.000, 0.000, 0.000, 20:38:25.857, 1561570705857
23, 14532.50, 17783.29, 20206.80, 22080.39, 1010.86, 7369.59, 8941.41, -1813.60, 0.000, 0.000, 0.000, 20:38:25.857, 1561570705857
24, 14818.98, 18757.61, 21360.69, 22466.05, 1340.46, 7620.29, 9406.66, -1335.90, 0.000, 0.000, 0.000, 20:38:25.857, 1561570705857
25, 13878.47, 15455.07, 18890.89, 21587.43, -652.92, 6874.10, 7647.90, -2543.74, 0.000, 0.000, 0.000, 20:38:25.857, 1561570705857
26, 13339.25, 13610.11, 17068.15, 20956.95, -1472.44, 6423.87, 6752.48, -3335.06, 0.240, -0.092, -0.990, 20:38:25.857, 1561570705857
27, 13752.74, 14972.34, 17928.40, 21315.38, -483.40, 6745.44, 7570.74, -2794.91, 0.000, 0.000, 0.000, 20:38:25.857, 1561570705857
28, 14526.89, 17772.34, 20197.82, 22076.35, 999.64, 7370.13, 8936.76, -1822.16, 0.000, 0.000, 0.000, 20:38:25.857, 1561570705857
29, 14810.11, 18744.69, 21348.26, 22458.21, 1331.81, 7616.20, 9394.97, -1349.37, 0.000, 0.000, 0.000, 20:38:25.857, 1561570705857
30, 13886.09, 15468.73, 18903.00, 21595.16, -640.74, 6878.55, 7647.85, -2543.76, 0.000, 0.000, 0.000, 20:38:25.915, 1561570705915
31, 13342.54, 13609.08, 17066.90, 20960.37, -1473.63, 6424.38, 6745.56, -3336.20, 0.000, 0.000, 0.000, 20:38:25.915, 1561570705915
32, 13750.90, 14958.57, 17914.77, 21308.10, -493.21, 6737.44, 7559.65, -2797.95, 0.000, 0.000, 0.000, 20:38:25.915, 1561570705915
33, 14527.20, 17761.90, 20188.90, 22072.93, 996.08, 7369.66, 8940.50, -1818.27, 0.000, 0.000, 0.000, 20:38:25.915, 1561570705915
34, 14816.99, 18753.47, 21354.59, 22461.22, 1338.62, 7624.65, 9410.64, -1340.79, 0.000, 0.000, 0.000, 20:38:25.915, 1561570705915
35, 13883.58, 15473.42, 18908.84, 21591.65, -637.00, 6881.79, 7664.17, -2536.70, 0.000, 0.000, 0.000, 20:38:25.915, 1561570705915
36, 13334.22, 13595.20, 17063.79, 20953.89, -1473.72, 6422.35, 6750.88, -3335.08, 0.244, -0.096, -0.992, 20:38:25.915, 1561570705915
37, 13744.49, 14944.51, 17912.15, 21309.57, -490.60, 6741.02, 7566.20, -2797.45, 0.000, 0.000, 0.000, 20:38:25.915, 1561570705915
38, 14522.13, 17747.82, 20183.69, 22075.65, 997.76, 7369.28, 8939.33, -1825.18, 0.000, 0.000, 0.000, 20:38:25.915, 1561570705915
39, 14811.83, 18748.73, 21354.05, 22465.40, 1344.46, 7621.23, 9414.17, -1340.79, 0.000, 0.000, 0.000, 20:38:25.915, 1561570705915
40, 13885.55, 15473.24, 18913.69, 21600.48, -629.22, 6885.92, 7669.02, -2534.51, 0.000, 0.000, 0.000, 20:38:25.915, 1561570705915
41, 13340.39, 13602.76, 17072.28, 20962.83, -1464.08, 6429.90, 6761.92, -3330.30, 0.000, 0.000, 0.000, 20:38:25.915, 1561570705915
42, 13744.60, 14933.89, 17904.04, 21309.84, -494.60, 6741.29, 7567.83, -2796.38, 0.000, 0.000, 0.000, 20:38:25.915, 1561570705915
43, 14514.31, 17731.39, 20166.06, 22068.19, 986.07, 7365.66, 8936.14, -1825.89, 0.000, 0.000, 0.000, 20:38:25.915, 1561570705915
44, 14810.51, 18762.03, 21359.01, 22462.07, 1344.77, 7622.93, 9424.23, -1334.38, 0.000, 0.000, 0.000, 20:38:25.916, 1561570705916
45, 13887.27, 15501.14, 18930.65, 21602.27, -624.78, 6886.75, 7681.09, -2522.08, 0.000, 0.000, 0.000, 20:38:25.974, 1561570705974
46, 13333.02, 13607.65, 17067.43, 20959.61, -1481.18, 6422.80, 6757.54, -3328.53, 0.244, -0.094, -0.994, 20:38:25.974, 1561570705974
47, 13735.48, 14937.07, 17894.89, 21305.46, -511.56, 6735.79, 7565.01, -2795.93, 0.000, 0.000, 0.000, 20:38:25.974, 1561570705974
48, 14513.41, 17741.54, 20168.69, 22070.49, 982.27, 7367.36, 8939.16, -1818.52, 0.000, 0.000, 0.000, 20:38:25.974, 1561570705974
49, 14806.78, 18770.35, 21360.80, 22458.14, 1338.78, 7619.20, 9415.02, -1337.60, 0.000, 0.000, 0.000, 20:38:25.974, 1561570705974
50, 13888.79, 15523.24, 18946.43, 21602.38, -624.40, 6884.99, 7675.45, -2526.24, 0.000, 0.000, 0.000, 20:38:25.974, 1561570705974
51, 13331.90, 13606.76, 17069.78, 20957.02, -1488.72, 6420.38, 6740.48, -3342.08, 0.000, 0.000, 0.000, 20:38:25.974, 1561570705974
52, 13733.96, 14924.95, 17889.67, 21301.23, -520.33, 6729.66, 7539.56, -2815.76, 0.000, 0.000, 0.000, 20:38:25.974, 1561570705974
53, 14506.01, 17715.10, 20148.80, 22061.91, 960.43, 7356.92, 8906.07, -1846.63, 0.000, 0.000, 0.000, 20:38:25.974, 1561570705974
54, 14814.98, 18776.07, 21366.77, 22466.95, 1343.16, 7626.37, 9412.83, -1344.66, 0.000, 0.000, 0.000, 20:38:25.974, 1561570705974
55, 13905.31, 15543.49, 18969.68, 21619.12, -605.35, 6901.10, 7690.83, -2513.70, 0.000, 0.000, 0.000, 20:38:25.974, 1561570705974
56, 13339.16, 13607.63, 17079.53, 20962.85, -1480.33, 6429.57, 6744.71, -3336.38, 0.246, -0.098, -0.992, 20:38:25.974, 1561570705974
57, 13733.74, 14914.85, 17887.50, 21302.46, -517.93, 6736.08, 7543.00, -2811.89, 0.000, 0.000, 0.000, 20:38:25.974, 1561570705974
58, 14508.00, 17707.72, 20148.26, 22065.62, 972.84, 7365.79, 8917.43, -1835.91, 0.000, 0.000, 0.000, 20:38:25.974, 1561570705974
59, 14817.19, 18780.92, 21372.60, 22468.17, 1360.68, 7630.48, 9427.27, -1330.42, 0.000, 0.000, 0.000, 20:38:25.975, 1561570705975
60, 13902.34, 15549.84, 18975.69, 21613.60, -595.50, 6900.41, 7711.11, -2499.17, 0.000, 0.000, 0.000, 20:38:26.036, 1561570706036
61, 13333.75, 13601.44, 17073.65, 20953.96, -1483.31, 6426.82, 6757.11, -3327.53, 0.000, 0.000, 0.000, 20:38:26.036, 1561570706036
62, 13736.08, 14908.95, 17880.70, 21296.83, -520.73, 6737.62, 7550.46, -2805.72, 0.000, 0.000, 0.000, 20:38:26.036, 1561570706036
63, 14506.75, 17693.28, 20131.72, 22053.82, 959.47, 7362.02, 8918.08, -1837.49, 0.000, 0.000, 0.000, 20:38:26.036, 1561570706036
64, 14815.05, 18769.74, 21357.74, 22460.02, 1346.54, 7629.54, 9436.64, -1328.27, 0.000, 0.000, 0.000, 20:38:26.036, 1561570706036
65, 13903.92, 15551.07, 18969.01, 21610.40, -608.26, 6898.11, 7720.90, -2495.06, 0.000, 0.000, 0.000, 20:38:26.036, 1561570706036
66, 13328.81, 13599.16, 17063.19, 20943.18, -1500.47, 6414.01, 6756.66, -3331.48, 0.250, -0.096, -0.990, 20:38:26.037, 1561570706037
67, 13722.85, 14884.14, 17854.73, 21284.96, -547.37, 6723.76, 7544.52, -2816.70, 0.000, 0.000, 0.000, 20:38:26.037, 1561570706037
68, 14488.53, 17667.85, 20098.33, 22041.41, 934.48, 7348.20, 8908.35, -1852.09, 0.000, 0.000, 0.000, 20:38:26.037, 1561570706037
69, 14812.57, 18796.39, 21370.03, 22462.59, 1354.49, 7625.61, 9444.80, -1328.43, 0.000, 0.000, 0.000, 20:38:26.037, 1561570706037
70, 13909.33, 15586.38, 18999.65, 21625.38, -589.04, 6906.06, 7730.04, -2489.02, 0.000, 0.000, 0.000, 20:38:26.037, 1561570706037
71, 13334.58, 13622.92, 17086.81, 20960.44, -1485.03, 6426.10, 6762.61, -3324.87, 0.000, 0.000, 0.000, 20:38:26.037, 1561570706037
72, 13722.05, 14902.06, 17871.98, 21291.94, -537.29, 6727.45, 7543.67, -2814.26, 0.000, 0.000, 0.000, 20:38:26.037, 1561570706037
73, 14491.37, 17677.55, 20113.75, 22048.03, 942.68, 7352.34, 8904.33, -1852.83, 0.000, 0.000, 0.000, 20:38:26.037, 1561570706037
74, 14815.79, 18801.04, 21377.77, 22468.13, 1359.21, 7627.73, 9434.83, -1332.10, 0.000, 0.000, 0.000, 20:38:26.037, 1561570706037
75, 13915.39, 15603.98, 19017.40, 21635.01, -575.85, 6909.19, 7734.11, -2483.90, 0.000, 0.000, 0.000, 20:38:26.097, 1561570706097
76, 13337.24, 13614.38, 17089.56, 20970.63, -1484.04, 6430.64, 6758.81, -3324.73, 0.248, -0.098, -0.984, 20:38:26.097, 1561570706097
77, 13722.38, 14884.90, 17860.47, 21296.32, -544.20, 6730.78, 7535.82, -2814.20, 0.000, 0.000, 0.000, 20:38:26.097, 1561570706097
78, 14488.09, 17664.27, 20102.02, 22047.49, 936.58, 7351.24, 8896.02, -1849.34, 0.000, 0.000, 0.000, 20:38:26.097, 1561570706097
79, 14818.33, 18808.25, 21385.61, 22474.32, 1373.13, 7639.29, 9444.77, -1318.51, 0.000, 0.000, 0.000, 20:38:26.097, 1561570706097
80, 13918.68, 15620.00, 19035.77, 21638.63, -559.93, 6919.12, 7746.65, -2470.85, 0.000, 0.000, 0.000, 20:38:26.098, 1561570706098
81, 13323.92, 13600.54, 17081.27, 20956.99, -1491.98, 6421.63, 6753.71, -3327.82, 0.000, 0.000, 0.000, 20:38:26.098, 1561570706098
82, 13696.54, 14845.56, 17838.50, 21279.29, -554.26, 6717.64, 7523.78, -2827.41, 0.000, 0.000, 0.000, 20:38:26.098, 1561570706098
83, 14465.58, 17626.34, 20078.04, 22035.76, 931.40, 7342.30, 8889.47, -1859.46, 0.000, 0.000, 0.000, 20:38:26.098, 1561570706098
84, 14796.16, 18799.34, 21376.83, 22462.41, 1373.83, 7627.87, 9451.39, -1318.55, 0.000, 0.000, 0.000, 20:38:26.098, 1561570706098
85, 13899.75, 15620.83, 19040.58, 21636.67, -550.86, 6920.10, 7767.25, -2458.31, 0.000, 0.000, 0.000, 20:38:26.098, 1561570706098
86, 13299.09, 13583.62, 17074.07, 20949.15, -1496.36, 6421.63, 6761.09, -3325.38, 0.246, -0.098, -0.984, 20:38:26.098, 1561570706098
87, 13667.64, 14812.34, 17818.38, 21267.10, -567.98, 6712.41, 7521.41, -2829.37, 0.000, 0.000, 0.000, 20:38:26.098, 1561570706098
88, 14430.46, 17588.05, 20056.87, 22025.16, 915.89, 7335.91, 8889.24, -1860.60, 0.000, 0.000, 0.000, 20:38:26.098, 1561570706098
89, 14761.49, 18766.99, 21361.88, 22461.31, 1362.43, 7626.91, 9453.11, -1319.80, 0.000, 0.000, 0.000, 20:38:26.098, 1561570706098
90, 13858.21, 15588.71, 19025.11, 21629.25, -564.76, 6910.13, 7762.13, -2463.59, 0.000, 0.000, 0.000, 20:38:26.156, 1561570706156
91, 13250.96, 13543.61, 17054.45, 20940.77, -1514.73, 6412.13, 6752.08, -3333.78, 0.000, 0.000, 0.000, 20:38:26.156, 1561570706156
92, 13617.87, 14769.41, 17795.10, 21252.73, -588.23, 6701.16, 7506.61, -2841.76, 0.000, 0.000, 0.000, 20:38:26.156, 1561570706156
93, 14385.60, 17544.53, 20036.01, 22004.02, 902.94, 7328.11, 8871.18, -1875.22, 0.000, 0.000, 0.000, 20:38:26.156, 1561570706156
94, 14727.50, 18748.55, 21365.56, 22443.65, 1373.76, 7625.34, 9454.43, -1323.25, 0.000, 0.000, 0.000, 20:38:26.156, 1561570706156
95, 13838.59, 15589.87, 19051.71, 21625.96, -539.77, 6920.17, 7776.08, -2456.37, 0.000, 0.000, 0.000, 20:38:26.156, 1561570706156
96, 13229.91, 13525.89, 17063.14, 20935.87, -1501.08, 6420.11, 6751.25, -3332.96, 0.244, -0.096, -0.988, 20:38:26.156, 1561570706156
97, 13599.65, 14749.09, 17796.01, 21247.59, -577.17, 6706.95, 7510.19, -2839.77, 0.000, 0.000, 0.000, 20:38:26.156, 1561570706156
98, 14365.38, 17517.22, 20024.93, 21999.26, 901.16, 7327.06, 8873.33, -1875.42, 0.000, 0.000, 0.000, 20:38:26.156, 1561570706156
99, 14706.62, 18720.19, 21345.33, 22432.86, 1360.77, 7617.79, 9445.62, -1331.09, 0.000, 0.000, 0.000, 20:38:26.156, 1561570706156
100, 13819.77, 15577.98, 19039.95, 21618.70, -547.42, 6914.98, 7772.51, -2457.28, 0.000, 0.000, 0.000, 20:38:26.156, 1561570706156
101, 13213.43, 13504.45, 17047.54, 20928.25, -1513.86, 6411.58, 6749.11, -3334.59, 0.000, 0.000, 0.000, 20:38:26.156, 1561570706156
102, 13586.22, 14724.61, 17777.30, 21243.72, -592.79, 6699.18, 7501.89, -2845.62, 0.000, 0.000, 0.000, 20:38:26.156, 1561570706156
103, 14358.89, 17503.38, 20012.48, 22001.85, 892.10, 7326.77, 8869.04, -1876.29, 0.000, 0.000, 0.000, 20:38:26.156, 1561570706156
104, 14705.64, 18724.99, 21347.55, 22440.55, 1361.85, 7624.36, 9451.01, -1323.36, 0.000, 0.000, 0.000, 20:38:26.156, 1561570706156
105, 13834.01, 15601.00, 19059.78, 21634.23, -537.87, 6928.73, 7786.14, -2443.45, 0.000, 0.000, 0.000, 20:38:26.215, 1561570706215
106, 13227.52, 13520.10, 17061.27, 20937.95, -1510.04, 6423.33, 6754.88, -3326.19, 0.242, -0.102, -0.992, 20:38:26.215, 1561570706215
107, 13598.47, 14737.17, 17784.99, 21253.13, -589.46, 6710.37, 7510.21, -2837.98, 0.000, 0.000, 0.000, 20:38:26.215, 1561570706215
108, 14368.57, 17507.65, 20008.90, 22007.15, 887.39, 7328.27, 8873.13, -1876.99, 0.000, 0.000, 0.000, 20:38:26.215, 1561570706215
109, 14722.74, 18747.46, 21355.01, 22456.33, 1364.71, 7630.53, 9464.04, -1319.07, 0.000, 0.000, 0.000, 20:38:26.215, 1561570706215
110, 13844.07, 15611.15, 19058.62, 21644.60, -544.06, 6929.35, 7790.32, -2444.74, 0.000, 0.000, 0.000, 20:38:26.216, 1561570706216
111, 13242.98, 13532.71, 17060.53, 20950.18, -1515.74, 6424.36, 6759.90, -3329.00, 0.000, 0.000, 0.000, 20:38:26.216, 1561570706216
112, 13611.74, 14735.07, 17774.67, 21257.09, -605.13, 6706.86, 7498.25, -2849.15, 0.000, 0.000, 0.000, 20:38:26.216, 1561570706216
113, 14384.46, 17508.48, 20005.28, 22012.98, 883.92, 7330.97, 8864.01, -1883.38, 0.000, 0.000, 0.000, 20:38:26.216, 1561570706216
114, 14752.46, 18796.32, 21390.82, 22475.44, 1389.34, 7644.27, 9479.06, -1307.76, 0.000, 0.000, 0.000, 20:38:26.216, 1561570706216
115, 13874.33, 15672.55, 19109.09, 21666.89, -515.79, 6943.46, 7809.48, -2429.05, 0.000, 0.000, 0.000, 20:38:26.216, 1561570706216
116, 13254.38, 13550.50, 17080.91, 20956.41, -1507.69, 6424.85, 6757.07, -3328.89, 0.246, -0.102, -0.990, 20:38:26.216, 1561570706216
117, 13614.87, 14735.32, 17779.02, 21257.42, -600.95, 6701.79, 7499.03, -2849.33, 0.000, 0.000, 0.000, 20:38:26.216, 1561570706216
118, 14387.62, 17498.98, 20001.41, 22014.30, 883.36, 7330.39, 8861.37, -1887.31, 0.000, 0.000, 0.000, 20:38:26.216, 1561570706216
119, 14757.20, 18793.19, 21387.18, 22473.40, 1392.49, 7646.93, 9473.85, -1313.14, 0.000, 0.000, 0.000, 20:38:26.216, 1561570706216
120, 13890.56, 15697.76, 19126.86, 21674.58, -498.38, 6956.11, 7819.15, -2421.03, 0.000, 0.000, 0.000, 20:38:26.276, 1561570706276
121, 13266.63, 13562.84, 17089.72, 20960.77, -1505.41, 6434.71, 6755.43, -3328.38, 0.000, 0.000, 0.000, 20:38:26.276, 1561570706276
122, 13625.78, 14740.93, 17780.66, 21258.59, -605.37, 6707.18, 7485.84, -2857.42, 0.000, 0.000, 0.000, 20:38:26.276, 1561570706276
123, 14390.41, 17497.41, 19993.28, 22009.29, 873.66, 7326.54, 8840.90, -1894.18, 0.000, 0.000, 0.000, 20:38:26.276, 1561570706276
124, 14765.96, 18804.25, 21391.09, 22475.91, 1397.16, 7648.05, 9473.03, -1307.49, 0.000, 0.000, 0.000, 20:38:26.276, 1561570706276
125, 13900.44, 15713.70, 19137.70, 21676.88, -490.20, 6955.17, 7825.61, -2414.17, 0.000, 0.000, 0.000, 20:38:26.276, 1561570706276
126, 13273.81, 13572.09, 17090.34, 20961.53, -1506.69, 6434.15, 6753.85, -3324.06, 0.244, -0.096, -0.982, 20:38:26.276, 1561570706276
127, 13628.28, 14741.04, 17770.96, 21257.38, -614.05, 6708.36, 7483.94, -2857.16, 0.000, 0.000, 0.000, 20:38:26.276, 1561570706276
128, 14397.52, 17498.04, 19985.05, 22012.18, 868.54, 7333.99, 8847.54, -1891.85, 0.000, 0.000, 0.000, 20:38:26.276, 1561570706276
129, 14769.65, 18803.67, 21380.47, 22474.07, 1386.19, 7650.15, 9467.35, -1313.63, 0.000, 0.000, 0.000, 20:38:26.276, 1561570706276
130, 13903.37, 15718.15, 19132.06, 21680.88, -500.54, 6957.96, 7815.91, -2419.26, 0.000, 0.000, 0.000, 20:38:26.276, 1561570706276
131, 13278.48, 13573.90, 17088.82, 20969.69, -1512.77, 6436.90, 6752.91, -3325.47, 0.000, 0.000, 0.000, 20:38:26.276, 1561570706276
132, 13630.74, 14730.16, 17762.86, 21261.87, -622.76, 6707.47, 7479.77, -2857.04, 0.000, 0.000, 0.000, 20:38:26.276, 1561570706276
133, 14394.79, 17486.02, 19969.47, 22009.18, 858.80, 7327.53, 8839.00, -1895.23, 0.000, 0.000, 0.000, 20:38:26.276, 1561570706276
134, 14787.49, 18847.24, 21410.42, 22489.34, 1412.16, 7657.62, 9495.67, -1293.88, 0.000, 0.000, 0.000, 20:38:26.277, 1561570706277
135, 13922.70, 15766.07, 19173.73, 21695.99, -473.70, 6964.33, 7848.52, -2400.26, 0.000, 0.000, 0.000, 20:38:26.336, 1561570706336
136, 13285.90, 13584.41, 17103.08, 20972.15, -1506.44, 6435.89, 6758.81, -3323.57, 0.244, -0.098, -0.990, 20:38:26.336, 1561570706336
137, 13633.85, 14729.44, 17765.19, 21259.57, -622.50, 6707.00, 7473.60, -2862.32, 0.000, 0.000, 0.000, 20:38:26.336, 1561570706336
138, 14397.00, 17481.10, 19970.90, 22007.28, 854.93, 7327.84, 8829.70, -1902.33, 0.000, 0.000, 0.000, 20:38:26.336, 1561570706336
139, 14778.21, 18827.61, 21395.07, 22476.27, 1395.11, 7648.16, 9472.02, -1313.41, 0.000, 0.000, 0.000, 20:38:26.337, 1561570706337
140, 13933.41, 15784.40, 19191.79, 21702.87, -459.86, 6972.54, 7849.98, -2393.51, 0.000, 0.000, 0.000, 20:38:26.337, 1561570706337
141, 13291.60, 13590.64, 17111.31, 20971.63, -1504.27, 6436.65, 6750.36, -3327.41, 0.000, 0.000, 0.000, 20:38:26.337, 1561570706337
142, 13637.56, 14729.26, 17765.37, 21255.10, -624.22, 6700.40, 7463.40, -2874.84, 0.000, 0.000, 0.000, 20:38:26.337, 1561570706337
143, 14401.47, 17476.58, 19965.47, 22002.12, 852.03, 7317.89, 8817.94, -1920.08, 0.000, 0.000, 0.000, 20:38:26.337, 1561570706337
144, 14796.14, 18849.94, 21409.17, 22484.16, 1406.06, 7649.35, 9472.20, -1317.75, 0.000, 0.000, 0.000, 20:38:26.337, 1561570706337
145, 13935.62, 15799.96, 19198.00, 21695.52, -462.06, 6960.20, 7842.31, -2403.68, 0.244, -0.096, -0.986, 20:38:26.337, 1561570706337
146, 13293.92, 13593.08, 17110.44, 20968.53, -1514.42, 6428.88, 6738.02, -3335.93, 0.000, 0.000, 0.000, 20:38:26.337, 1561570706337
147, 13641.47, 14721.62, 17757.81, 21254.94, -634.43, 6700.56, 7453.86, -2877.88, 0.000, 0.000, 0.000, 20:38:26.337, 1561570706337
148, 14398.93, 17459.86, 19950.34, 21997.40, 840.51, 7316.62, 8807.10, -1923.21, 0.000, 0.000, 0.000, 20:38:26.337, 1561570706337
149, 14783.76, 18825.49, 21391.24, 22472.22, 1397.23, 7647.36, 9459.48, -1322.80, 0.000, 0.000, 0.000, 20:38:26.337, 1561570706337
150, 13928.44, 15786.61, 19189.11, 21689.64, -468.07, 6962.86, 7836.74, -2406.55, 0.000, 0.000, 0.000, 20:38:26.337, 1561570706337
151, 13286.12, 13582.82, 17100.94, 20962.16, -1518.96, 6426.24, 6738.31, -3336.47, 0.000, 0.000, 0.000, 20:38:26.396, 1561570706396
152, 13633.42, 14705.95, 17741.56, 21246.63, -642.08, 6690.79, 7447.85, -2881.16, 0.000, 0.000, 0.000, 20:38:26.396, 1561570706396
153, 14393.03, 17441.18, 19926.87, 21984.30, 826.55, 7299.95, 8793.35, -1932.91, 0.000, 0.000, 0.000, 20:38:26.396, 1561570706396
154, 14795.74, 18850.25, 21401.10, 22476.71, 1406.33, 7643.31, 9473.47, -1317.46, 0.000, 0.000, 0.000, 20:38:26.396, 1561570706396
155, 13943.96, 15826.55, 19213.78, 21703.83, -448.13, 6964.38, 7860.80, -2388.51, 0.240, -0.096, -0.986, 20:38:26.396, 1561570706396
156, 13295.76, 13605.44, 17115.11, 20968.75, -1508.52, 6427.06, 6750.09, -3325.43, 0.000, 0.000, 0.000, 20:38:26.396, 1561570706396
157, 13635.59, 14718.27, 17751.44, 21246.00, -636.47, 6688.38, 7453.14, -2874.05, 0.000, 0.000, 0.000, 20:38:26.396, 1561570706396
158, 14398.34, 17451.24, 19939.25, 21986.87, 836.92, 7307.21, 8805.76, -1919.41, 0.000, 0.000, 0.000, 20:38:26.396, 1561570706396
159, 14795.13, 18855.26, 21404.21, 22468.73, 1411.09, 7642.04, 9475.69, -1311.13, 0.000, 0.000, 0.000, 20:38:26.396, 1561570706396
160, 13951.96, 15848.62, 19235.53, 21700.77, -432.57, 6968.00, 7872.17, -2376.46, 0.000, 0.000, 0.000, 20:38:26.396, 1561570706396
161, 13297.50, 13598.09, 17114.42, 20962.70, -1513.93, 6428.38, 6749.09, -3321.16, 0.000, 0.000, 0.000, 20:38:26.396, 1561570706396
162, 13639.17, 14705.28, 17738.01, 21248.26, -649.41, 6693.07, 7447.06, -2878.73, 0.000, 0.000, 0.000, 20:38:26.397, 1561570706397
163, 14396.89, 17435.72, 19919.85, 21991.01, 820.22, 7305.76, 8791.12, -1932.93, 0.000, 0.000, 0.000, 20:38:26.397, 1561570706397
164, 14799.16, 18861.50, 21404.66, 22476.85, 1407.67, 7644.43, 9472.74, -1318.17, 0.000, 0.000, 0.000, 20:38:26.397, 1561570706397
165, 13965.24, 15873.18, 19255.42, 21720.37, -423.77, 6981.59, 7879.82, -2373.17, 0.240, -0.096, -0.986, 20:38:26.397, 1561570706397
166, 13298.55, 13600.43, 17118.33, 20975.46, -1516.95, 6431.74, 6741.80, -3329.56, 0.000, 0.000, 0.000, 20:38:26.456, 1561570706456
167, 13632.80, 14693.92, 17728.80, 21246.29, -655.58, 6687.40, 7437.63, -2888.20, 0.000, 0.000, 0.000, 20:38:26.456, 1561570706456
168, 14393.88, 17425.75, 19911.04, 21988.60, 818.65, 7305.76, 8787.36, -1933.58, 0.000, 0.000, 0.000, 20:38:26.456, 1561570706456
169, 14796.74, 18865.72, 21401.57, 22479.73, 1410.26, 7647.83, 9472.65, -1313.77, 0.000, 0.000, 0.000, 20:38:26.456, 1561570706456
170, 13959.09, 15883.17, 19257.84, 21719.93, -421.26, 6980.34, 7890.75, -2367.61, 0.000, 0.000, 0.000, 20:38:26.456, 1561570706456
171, 13294.28, 13601.95, 17117.39, 20970.07, -1518.96, 6430.84, 6752.57, -3326.59, 0.000, 0.000, 0.000, 20:38:26.456, 1561570706456
172, 13628.35, 14677.29, 17716.24, 21241.87, -668.45, 6685.61, 7435.51, -2891.27, 0.000, 0.000, 0.000, 20:38:26.456, 1561570706456
173, 14381.25, 17394.06, 19883.35, 21977.55, 796.35, 7296.01, 8775.96, -1947.22, 0.000, 0.000, 0.000, 20:38:26.456, 1561570706456
174, 14797.88, 18869.07, 21402.98, 22480.60, 1413.93, 7649.50, 9488.20, -1308.56, 0.000, 0.000, 0.000, 20:38:26.456, 1561570706456
175, 13965.21, 15894.17, 19269.44, 21725.45, -410.85, 6988.43, 7905.34, -2354.24, 0.240, -0.096, -0.986, 20:38:26.456, 1561570706456
176, 13300.47, 13607.27, 17126.67, 20975.08, -1512.41, 6436.99, 6755.55, -3322.50, 0.000, 0.000, 0.000, 20:38:26.456, 1561570706456
177, 13629.89, 14674.66, 17716.51, 21241.20, -668.67, 6686.64, 7430.26, -2894.86, 0.000, 0.000, 0.000, 20:38:26.456, 1561570706456
178, 14386.66, 17396.36, 19884.69, 21977.42, 798.65, 7293.80, 8773.64, -1947.71, 0.000, 0.000, 0.000, 20:38:26.456, 1561570706456
179, 14807.87, 18883.38, 21416.57, 22483.19, 1426.51, 7651.76, 9490.64, -1305.43, 0.000, 0.000, 0.000, 20:38:26.456, 1561570706456
180, 13981.89, 15933.22, 19305.98, 21736.76, -384.94, 6997.55, 7917.52, -2341.73, 0.000, 0.000, 0.000, 20:38:26.456, 1561570706456
181, 13307.33, 13622.65, 17144.12, 20976.96, -1507.11, 6434.87, 6752.57, -3320.93, 0.000, 0.000, 0.000, 20:38:26.517, 1561570706517
182, 13633.80, 14677.43, 17722.56, 21240.35, -667.76, 6683.31, 7419.97, -2898.26, 0.000, 0.000, 0.000, 20:38:26.518, 1561570706518
183, 14392.73, 17398.22, 19892.34, 21983.57, 802.03, 7298.76, 8766.09, -1948.42, 0.000, 0.000, 0.000, 20:38:26.518, 1561570706518
184, 14818.60, 18895.54, 21427.52, 22496.56, 1433.71, 7660.12, 9488.45, -1305.14, 0.000, 0.000, 0.000, 20:38:26.518, 1561570706518
185, 13986.87, 15945.31, 19313.00, 21744.00, -384.87, 7000.14, 7916.94, -2343.89, 0.244, -0.096, -0.986, 20:38:26.518, 1561570706518
186, 13301.34, 13615.97, 17133.71, 20971.17, -1519.72, 6428.79, 6742.72, -3326.21, 0.000, 0.000, 0.000, 20:38:26.518, 1561570706518
187, 13626.65, 14666.88, 17710.27, 21230.33, -675.98, 6678.59, 7425.20, -2898.37, 0.000, 0.000, 0.000, 20:38:26.518, 1561570706518
188, 14380.20, 17378.68, 19870.46, 21965.97, 786.13, 7289.33, 8762.31, -1955.51, 0.000, 0.000, 0.000, 20:38:26.518, 1561570706518
189, 14807.65, 18888.36, 21414.89, 22478.21, 1423.45, 7653.26, 9484.87, -1310.68, 0.000, 0.000, 0.000, 20:38:26.518, 1561570706518
190, 13986.42, 15957.76, 19322.77, 21734.99, -380.02, 6998.44, 7920.92, -2340.52, 0.000, 0.000, 0.000, 20:38:26.518, 1561570706518
191, 13306.17, 13618.02, 17139.50, 20970.70, -1519.43, 6433.88, 6740.28, -3324.80, 0.000, 0.000, 0.000, 20:38:26.518, 1561570706518
192, 13621.89, 14651.59, 17700.28, 21221.60, -685.46, 6677.76, 7410.45, -2902.75, 0.000, 0.000, 0.000, 20:38:26.518, 1561570706518
193, 14374.81, 17362.46, 19860.82, 21954.78, 784.97, 7289.04, 8753.52, -1955.31, 0.000, 0.000, 0.000, 20:38:26.518, 1561570706518
194, 14809.77, 18890.22, 21417.55, 22472.44, 1432.55, 7654.02, 9486.55, -1308.61, 0.000, 0.000, 0.000, 20:38:26.518, 1561570706518
195, 13995.77, 15974.75, 19336.07, 21741.34, -368.04, 7004.68, 7928.34, -2331.00, 0.246, -0.094, -0.994, 20:38:26.518, 1561570706518
196, 13311.69, 13617.06, 17139.32, 20975.68, -1518.11, 6437.01, 6738.22, -3323.88, 0.000, 0.000, 0.000, 20:38:26.576, 1561570706576
197, 13623.25, 14631.12, 17683.65, 21219.81, -693.26, 6672.17, 7395.66, -2916.90, 0.000, 0.000, 0.000, 20:38:26.576, 1561570706576
198, 14380.51, 17346.61, 19843.10, 21955.69, 779.54, 7282.11, 8738.39, -1972.00, 0.000, 0.000, 0.000, 20:38:26.577, 1561570706577
199, 14816.61, 18894.78, 21417.84, 22474.66, 1439.88, 7650.29, 9481.52, -1314.17, 0.000, 0.000, 0.000, 20:38:26.577, 1561570706577
200, 14004.24, 15989.23, 19348.76, 21744.20, -356.09, 7006.29, 7933.37, -2333.92, 0.000, 0.000, 0.000, 20:38:26.577, 1561570706577
201, 13316.30, 13631.75, 17151.81, 20974.05, -1508.61, 6438.06, 6748.53, -3322.32, 0.000, 0.000, 0.000, 20:38:26.577, 1561570706577
202, 13625.71, 14641.35, 17689.53, 21219.87, -693.19, 6673.54, 7403.25, -2910.62, 0.000, 0.000, 0.000, 20:38:26.577, 1561570706577
203, 14379.35, 17344.46, 19841.24, 21953.88, 775.72, 7283.90, 8740.74, -1966.13, 0.000, 0.000, 0.000, 20:38:26.577, 1561570706577
204, 14823.92, 18920.51, 21436.62, 22483.80, 1452.01, 7659.74, 9501.91, -1298.50, 0.000, 0.000, 0.000, 20:38:26.577, 1561570706577
205, 14014.61, 16025.84, 19381.15, 21760.18, -338.16, 7016.19, 7961.42, -2311.91, 0.246, -0.096, -0.996, 20:38:26.577, 1561570706577
206, 13312.43, 13632.98, 17156.35, 20980.35, -1513.77, 6441.53, 6748.08, -3320.04, 0.000, 0.000, 0.000, 20:38:26.577, 1561570706577
207, 13611.12, 14626.31, 17679.74, 21212.79, -703.81, 6669.98, 7391.92, -2917.30, 0.000, 0.000, 0.000, 20:38:26.577, 1561570706577
208, 14360.24, 17322.67, 19822.85, 21940.74, 756.18, 7272.34, 8733.25, -1974.91, 0.000, 0.000, 0.000, 20:38:26.577, 1561570706577
209, 14811.81, 18900.21, 21419.14, 22476.51, 1437.02, 7652.66, 9497.46, -1306.66, 0.000, 0.000, 0.000, 20:38:26.577, 1561570706577
210, 14011.03, 16026.89, 19380.75, 21759.15, -338.34, 7016.82, 7964.06, -2312.60, 0.000, 0.000, 0.000, 20:38:26.577, 1561570706577
211, 13311.13, 13626.45, 17155.16, 20979.44, -1516.43, 6435.72, 6750.63, -3321.94, 0.000, 0.000, 0.000, 20:38:26.635, 1561570706635
212, 13615.10, 14619.47, 17676.18, 21218.22, -707.52, 6665.94, 7391.23, -2921.86, 0.000, 0.000, 0.000, 20:38:26.636, 1561570706636
213, 14368.37, 17316.37, 19821.77, 21949.95, 759.00, 7275.25, 8729.41, -1976.45, 0.000, 0.000, 0.000, 20:38:26.636, 1561570706636
214, 14816.26, 18903.03, 21423.56, 22477.72, 1438.65, 7651.92, 9493.39, -1306.55, 0.000, 0.000, 0.000, 20:38:26.636, 1561570706636
215, 14008.98, 16028.19, 19382.63, 21752.27, -346.72, 7009.62, 7958.16, -2314.46, 0.248, -0.098, -0.996, 20:38:26.636, 1561570706636
216, 13304.34, 13620.42, 17147.68, 20964.79, -1529.17, 6425.21, 6739.77, -3328.73, 0.000, 0.000, 0.000, 20:38:26.636, 1561570706636
217, 13608.97, 14610.89, 17667.89, 21205.86, -714.41, 6657.62, 7389.55, -2922.98, 0.000, 0.000, 0.000, 20:38:26.636, 1561570706636
218, 14360.35, 17302.51, 19805.39, 21934.53, 746.10, 7264.94, 8721.18, -1983.25, 0.000, 0.000, 0.000, 20:38:26.636, 1561570706636
219, 14817.10, 18901.64, 21411.94, 22469.22, 1432.81, 7652.21, 9490.26, -1309.23, 0.000, 0.000, 0.000, 20:38:26.636, 1561570706636
220, 14014.16, 16045.00, 19385.64, 21754.71, -340.89, 7018.36, 7967.41, -2307.64, 0.000, 0.000, 0.000, 20:38:26.636, 1561570706636
221, 13302.89, 13628.55, 17145.89, 20966.16, -1530.45, 6432.68, 6742.81, -3324.91, 0.000, 0.000, 0.000, 20:38:26.636, 1561570706636
222, 13604.63, 14601.72, 17654.70, 21202.80, -724.55, 6663.19, 7383.18, -2924.06, 0.000, 0.000, 0.000, 20:38:26.636, 1561570706636
223, 14354.02, 17287.38, 19788.92, 21932.45, 740.87, 7269.44, 8718.19, -1984.68, 0.000, 0.000, 0.000, 20:38:26.636, 1561570706636
224, 14811.56, 18910.07, 21417.53, 22473.40, 1444.17, 7656.99, 9500.88, -1303.64, 0.000, 0.000, 0.000, 20:38:26.636, 1561570706636
225, 14018.70, 16068.80, 19413.81, 21764.63, -315.49, 7027.16, 7987.53, -2289.69, 0.246, -0.098, -0.998, 20:38:26.636, 1561570706636
226, 13311.87, 13640.33, 17168.31, 20978.03, -1511.02, 6443.18, 6760.44, -3306.20, 0.000, 0.000, 0.000, 20:38:26.696, 1561570706696
227, 13611.34, 14612.63, 17669.32, 21209.64, -712.31, 6668.75, 7395.50, -2913.80, 0.000, 0.000, 0.000, 20:38:26.696, 1561570706696
228, 14361.55, 17300.34, 19798.95, 21937.14, 743.06, 7273.12, 8723.53, -1978.69, 0.000, 0.000, 0.000, 20:38:26.696, 1561570706696
229, 14823.07, 18925.58, 21427.23, 22476.38, 1446.22, 7660.37, 9503.20, -1299.15, 0.000, 0.000, 0.000, 20:38:26.696, 1561570706696
230, 14035.38, 16102.49, 19436.88, 21772.48, -303.40, 7034.32, 8000.96, -2278.18, 0.000, 0.000, 0.000, 20:38:26.696, 1561570706696
231, 13316.07, 13641.98, 17170.74, 20976.33, -1520.75, 6442.15, 6749.73, -3313.78, 0.000, 0.000, 0.000, 20:38:26.696, 1561570706696
232, 13606.02, 14591.53, 17653.32, 21203.02, -731.37, 6662.63, 7371.00, -2930.36, 0.000, 0.000, 0.000, 20:38:26.696, 1561570706696
233, 14353.98, 17274.32, 19782.21, 21928.31, 729.85, 7266.71, 8704.64, -1988.28, 0.000, 0.000, 0.000, 20:38:26.696, 1561570706696
234, 14827.81, 18929.51, 21434.67, 22481.09, 1455.03, 7665.82, 9508.01, -1293.41, 0.000, 0.000, 0.000, 20:38:26.696, 1561570706696
235, 14037.77, 16112.14, 19445.73, 21779.83, -300.97, 7040.15, 8007.13, -2273.13, 0.244, -0.100, -0.998, 20:38:26.697, 1561570706697
236, 13317.59, 13647.44, 17176.31, 20980.67, -1517.59, 6444.48, 6758.05, -3309.78, 0.000, 0.000, 0.000, 20:38:26.697, 1561570706697
237, 13613.96, 14596.92, 17664.16, 21212.65, -715.01, 6670.88, 7383.29, -2922.51, 0.000, 0.000, 0.000, 20:38:26.697, 1561570706697
238, 14357.62, 17271.21, 19783.66, 21935.89, 742.21, 7272.54, 8709.31, -1985.80, 0.000, 0.000, 0.000, 20:38:26.697, 1561570706697
239, 14828.06, 18931.01, 21433.40, 22482.86, 1462.07, 7666.89, 9510.42, -1294.95, 0.000, 0.000, 0.000, 20:38:26.697, 1561570706697
240, 14044.43, 16135.70, 19464.72, 21786.94, -284.45, 7046.23, 8018.78, -2263.38, 0.000, 0.000, 0.000, 20:38:26.697, 1561570706697
241, 13316.83, 13650.61, 17177.34, 20978.07, -1521.39, 6443.36, 6756.93, -3306.20, 0.000, 0.000, 0.000, 20:38:26.757, 1561570706757
242, 13609.73, 14580.40, 17646.21, 21200.16, -736.47, 6663.86, 7374.09, -2927.12, 0.000, 0.000, 0.000, 20:38:26.757, 1561570706757
243, 14346.15, 17235.74, 19747.23, 21913.72, 711.81, 7257.81, 8687.54, -2005.55, 0.000, 0.000, 0.000, 20:38:26.758, 1561570706758
244, 14829.00, 18931.44, 21426.49, 22476.04, 1462.36, 7663.83, 9510.17, -1296.71, 0.000, 0.000, 0.000, 20:38:26.758, 1561570706758
245, 14048.25, 16142.83, 19469.51, 21784.77, -277.18, 7048.24, 8023.96, -2259.58, 0.242, -0.096, -1.000, 20:38:26.758, 1561570706758
246, 13321.06, 13659.58, 17185.14, 20982.83, -1510.66, 6450.42, 6765.56, -3298.83, 0.000, 0.000, 0.000, 20:38:26.759, 1561570706759
247, 13613.22, 14596.34, 17659.84, 21211.96, -722.88, 6674.81, 7384.30, -2915.52, 0.000, 0.000, 0.000, 20:38:26.761, 1561570706761
248, 14356.17, 17257.60, 19766.85, 21932.45, 726.95, 7274.78, 8703.17, -1986.15, 0.000, 0.000, 0.000, 20:38:26.761, 1561570706761
249, 14829.71, 18943.77, 21434.23, 22485.97, 1462.05, 7673.80, 9518.56, -1287.42, 0.000, 0.000, 0.000, 20:38:26.761, 1561570706761
250, 14055.22, 16173.79, 19494.36, 21797.71, -266.30, 7061.81, 8042.02, -2243.71, 0.000, 0.000, 0.000, 20:38:26.761, 1561570706761
251, 13320.32, 13659.42, 17190.01, 20981.98, -1517.33, 6455.32, 6762.41, -3300.32, 0.000, 0.000, 0.000, 20:38:26.761, 1561570706761
252, 13599.65, 14567.35, 17634.14, 21192.11, -745.12, 6664.89, 7366.80, -2934.36, 0.000, 0.000, 0.000, 20:38:26.761, 1561570706761
253, 14342.35, 17233.06, 19742.69, 21911.21, 713.18, 7260.79, 8691.95, -2003.52, 0.000, 0.000, 0.000, 20:38:26.761, 1561570706761
254, 14817.93, 18932.66, 21421.31, 22464.58, 1459.70, 7660.10, 9509.50, -1304.16, 0.000, 0.000, 0.000, 20:38:26.761, 1561570706761
255, 14051.56, 16182.51, 19498.68, 21785.08, -256.96, 7050.28, 8044.04, -2256.39, 0.244, -0.100, -0.996, 20:38:26.761, 1561570706761
0, 13317.68, 13657.99, 17187.55, 20973.78, -1516.54, 6442.67, 6755.12, -3319.52, 0.000, 0.000, 0.000, 20:38:26.816, 1561570706816
1, 13589.52, 14547.50, 17617.60, 21180.63, -757.93, 6645.37, 7342.17, -2960.80, 0.000, 0.000, 0.000, 20:38:26.816, 1561570706816
2, 14336.54, 17211.87, 19725.08, 21908.58, 700.32, 7251.33, 8668.92, -2020.87, 0.000, 0.000, 0.000, 20:38:26.816, 1561570706816
3, 14826.51, 18937.92, 21425.80, 22480.18, 1463.17, 7664.37, 9506.71, -1304.51, 0.000, 0.000, 0.000, 20:38:26.816, 1561570706816
4, 14065.35, 16201.73, 19517.07, 21808.80, -245.44, 7060.40, 8053.09, -2242.91, 0.000, 0.000, 0.000, 20:38:26.816, 1561570706816
5, 13321.71, 13659.11, 17190.82, 20984.00, -1520.08, 6445.10, 6762.21, -3306.31, 0.000, 0.000, 0.000, 20:38:26.816, 1561570706816
6, 13594.13, 14534.09, 17610.07, 21187.08, -764.16, 6651.54, 7350.30, -2949.42, 0.000, 0.000, 0.000, 20:38:26.816, 1561570706816
7, 14343.63, 17198.39, 19713.25, 21913.89, 698.18, 7261.21, 8675.43, -2014.36, 0.000, 0.000, 0.000, 20:38:26.816, 1561570706816
8, 14829.35, 18943.53, 21424.79, 22480.54, 1467.97, 7670.60, 9518.29, -1294.37, 0.246, -0.102, -0.994, 20:38:26.817, 1561570706817
9, 14060.90, 16205.26, 19517.47, 21804.10, -244.91, 7061.12, 8057.78, -2237.36, 0.000, 0.000, 0.000, 20:38:26.817, 1561570706817
10, 13325.75, 13672.29, 17199.87, 20991.71, -1511.25, 6453.71, 6772.38, -3295.59, 0.000, 0.000, 0.000, 20:38:26.817, 1561570706817
11, 13602.00, 14562.05, 17629.33, 21201.77, -751.29, 6663.08, 7368.30, -2932.73, 0.000, 0.000, 0.000, 20:38:26.817, 1561570706817
12, 14337.21, 17204.65, 19715.91, 21914.46, 692.97, 7257.90, 8680.84, -2010.41, 0.000, 0.000, 0.000, 20:38:26.817, 1561570706817
13, 14831.21, 18950.61, 21432.21, 22483.98, 1470.59, 7673.96, 9527.16, -1291.17, 0.000, 0.000, 0.000, 20:38:26.817, 1561570706817
14, 14071.94, 16229.82, 19540.12, 21811.75, -233.11, 7070.86, 8071.84, -2226.77, 0.000, 0.000, 0.000, 20:38:26.817, 1561570706817
15, 13321.26, 13667.13, 17199.51, 20983.68, -1522.60, 6450.36, 6765.34, -3301.08, 0.000, 0.000, 0.000, 20:38:26.876, 1561570706876
16, 13592.79, 14537.24, 17612.03, 21185.59, -769.57, 6655.16, 7352.45, -2945.89, 0.000, 0.000, 0.000, 20:38:26.876, 1561570706876
17, 14328.99, 17179.57, 19697.94, 21895.90, 680.34, 7248.76, 8663.83, -2020.98, 0.000, 0.000, 0.000, 20:38:26.876, 1561570706876
18, 14828.46, 18950.52, 21426.96, 22471.73, 1468.20, 7669.64, 9518.69, -1294.75, 0.240, -0.100, -0.992, 20:38:26.877, 1561570706877
19, 14082.72, 16259.08, 19564.88, 21817.36, -211.69, 7081.12, 8085.27, -2214.10, 0.000, 0.000, 0.000, 20:38:26.877, 1561570706877
20, 13324.88, 13669.28, 17208.16, 20983.73, -1512.01, 6455.05, 6762.74, -3299.77, 0.000, 0.000, 0.000, 20:38:26.877, 1561570706877
21, 13587.20, 14521.21, 17604.03, 21180.33, -770.40, 6653.04, 7336.80, -2953.05, 0.000, 0.000, 0.000, 20:38:26.877, 1561570706877
22, 14323.13, 17160.86, 19683.77, 21893.58, 677.39, 7243.17, 8652.85, -2030.01, 0.000, 0.000, 0.000, 20:38:26.877, 1561570706877
23, 14825.24, 18944.44, 21426.43, 22466.95, 1473.72, 7662.80, 9513.21, -1303.69, 0.000, 0.000, 0.000, 20:38:26.877, 1561570706877
24, 14080.44, 16266.06, 19573.98, 21814.68, -209.57, 7071.71, 8089.05, -2218.46, 0.000, 0.000, 0.000, 20:38:26.877, 1561570706877
25, 13320.63, 13662.95, 17204.05, 20984.89, -1526.98, 6445.44, 6762.88, -3305.00, 0.000, 0.000, 0.000, 20:38:26.877, 1561570706877
26, 13580.81, 14494.57, 17577.63, 21180.11, -795.30, 6642.89, 7326.97, -2965.52, 0.000, 0.000, 0.000, 20:38:26.877, 1561570706877
27, 14318.71, 17142.16, 19658.40, 21892.75, 653.52, 7236.40, 8643.35, -2041.43, 0.000, 0.000, 0.000, 20:38:26.877, 1561570706877
28, 14830.92, 18953.90, 21416.75, 22475.15, 1463.28, 7659.36, 9514.51, -1303.91, 0.240, -0.102, -0.988, 20:38:26.877, 1561570706877
29, 14084.75, 16279.58, 19573.02, 21821.65, -209.37, 7069.68, 8093.68, -2213.20, 0.000, 0.000, 0.000, 20:38:26.877, 1561570706877
30, 13320.63, 13673.97, 17207.22, 20984.71, -1520.30, 6444.30, 6767.12, -3298.87, 0.000, 0.000, 0.000, 20:38:26.937, 1561570706937
31, 13573.95, 14499.00, 17580.63, 21173.05, -795.12, 6638.85, 7328.33, -2963.13, 0.000, 0.000, 0.000, 20:38:26.937, 1561570706937
32, 14307.15, 17131.90, 19653.93, 21884.57, 651.15, 7235.21, 8638.46, -2040.36, 0.000, 0.000, 0.000, 20:38:26.937, 1561570706937
33, 14826.65, 18963.80, 21429.94, 22475.48, 1476.47, 7667.52, 9525.15, -1293.88, 0.000, 0.000, 0.000, 20:38:26.937, 1561570706937
34, 14094.25, 16324.57, 19611.15, 21836.83, -186.59, 7088.01, 8114.71, -2194.76, 0.000, 0.000, 0.000, 20:38:26.937, 1561570706937
35, 13326.29, 13695.00, 17225.66, 20993.70, -1517.06, 6455.14, 6768.53, -3294.58, 0.000, 0.000, 0.000, 20:38:26.937, 1561570706937
36, 13582.73, 14512.12, 17590.13, 21179.91, -788.21, 6646.60, 7329.52, -2960.73, 0.000, 0.000, 0.000, 20:38:26.937, 1561570706937
37, 14310.17, 17135.27, 19653.46, 21882.54, 650.41, 7233.27, 8637.03, -2043.04, 0.000, 0.000, 0.000, 20:38:26.937, 1561570706937
38, 14824.84, 18957.56, 21421.60, 22469.56, 1471.59, 7665.49, 9525.51, -1296.83, 0.242, -0.100, -0.990, 20:38:26.938, 1561570706938
39, 14094.67, 16322.09, 19610.66, 21831.51, -182.43, 7088.68, 8120.17, -2193.20, 0.000, 0.000, 0.000, 20:38:26.938, 1561570706938
40, 13318.67, 13679.56, 17213.70, 20980.46, -1524.59, 6446.20, 6764.89, -3300.97, 0.000, 0.000, 0.000, 20:38:26.938, 1561570706938
41, 13574.66, 14495.91, 17573.43, 21167.84, -802.92, 6637.44, 7323.79, -2968.40, 0.000, 0.000, 0.000, 20:38:26.938, 1561570706938
42, 14309.12, 17122.62, 19640.99, 21874.22, 638.84, 7228.69, 8628.51, -2052.67, 0.000, 0.000, 0.000, 20:38:26.938, 1561570706938
43, 14824.44, 18954.01, 21418.22, 22463.81, 1471.15, 7662.80, 9519.21, -1304.85, 0.000, 0.000, 0.000, 20:38:26.938, 1561570706938
44, 14101.33, 16345.96, 19629.66, 21837.41, -168.09, 7092.16, 8128.35, -2188.62, 0.000, 0.000, 0.000, 20:38:26.938, 1561570706938
45, 13326.36, 13692.10, 17228.86, 20989.83, -1517.15, 6452.32, 6767.08, -3297.93, 0.000, 0.000, 0.000, 20:38:26.997, 1561570706997
46, 13569.10, 14480.38, 17567.15, 21161.47, -810.00, 6628.61, 7307.52, -2980.99, 0.000, 0.000, 0.000, 20:38:26.997, 1561570706997
47, 14306.79, 17109.70, 19633.23, 21875.16, 636.42, 7226.94, 8622.92, -2056.76, 0.000, 0.000, 0.000, 20:38:26.997, 1561570706997
48, 14831.19, 18961.95, 21423.23, 22470.61, 1471.73, 7664.37, 9524.77, -1303.84, 0.244, -0.096, -0.988, 20:38:26.997, 1561570706997
49, 14100.62, 16339.33, 19626.40, 21832.76, -180.36, 7087.67, 8125.71, -2193.02, 0.000, 0.000, 0.000, 20:38:26.997, 1561570706997
50, 13320.03, 13681.14, 17217.44, 20981.83, -1529.80, 6448.72, 6762.72, -3306.05, 0.000, 0.000, 0.000, 20:38:26.997, 1561570706997
51, 13570.46, 14476.42, 17561.72, 21163.70, -814.70, 6635.72, 7311.10, -2979.96, 0.000, 0.000, 0.000, 20:38:26.997, 1561570706997
52, 14302.05, 17090.21, 19616.02, 21871.00, 624.08, 7224.62, 8614.23, -2062.24, 0.000, 0.000, 0.000, 20:38:26.997, 1561570706997
53, 14823.23, 18961.05, 21414.96, 22467.17, 1466.01, 7661.93, 9514.58, -1308.56, 0.000, 0.000, 0.000, 20:38:26.997, 1561570706997
54, 14105.83, 16371.98, 19644.54, 21846.30, -166.77, 7095.54, 8134.09, -2184.19, 0.000, 0.000, 0.000, 20:38:26.998, 1561570706998
55, 13329.55, 13703.88, 17235.63, 20995.69, -1520.32, 6454.60, 6770.03, -3295.25, 0.000, 0.000, 0.000, 20:38:26.998, 1561570706998
56, 13573.41, 14477.38, 17563.96, 21167.91, -813.69, 6636.93, 7308.51, -2976.25, 0.000, 0.000, 0.000, 20:38:26.998, 1561570706998
57, 14307.71, 17090.39, 19619.31, 21873.37, 628.71, 7230.25, 8619.19, -2056.74, 0.000, 0.000, 0.000, 20:38:26.998, 1561570706998
58, 14832.64, 18981.06, 21433.91, 22467.59, 1481.29, 7666.40, 9534.47, -1295.93, 0.244, -0.096, -0.992, 20:38:26.998, 1561570706998
59, 14113.87, 16406.67, 19676.58, 21847.47, -145.55, 7099.32, 8160.82, -2165.64, 0.000, 0.000, 0.000, 20:38:26.998, 1561570706998
60, 13327.27, 13705.49, 17242.02, 20988.13, -1520.99, 6452.08, 6769.81, -3290.82, 0.000, 0.000, 0.000, 20:38:27.056, 1561570707056
61, 13564.80, 14461.09, 17552.96, 21153.27, -825.11, 6630.24, 7293.28, -2981.59, 0.000, 0.000, 0.000, 20:38:27.056, 1561570707056
62, 14296.38, 17080.17, 19609.92, 21860.09, 619.21, 7220.82, 8603.86, -2059.51, 0.000, 0.000, 0.000, 20:38:27.056, 1561570707056
63, 14818.85, 18956.58, 21411.12, 22456.53, 1462.83, 7657.01, 9506.24, -1307.02, 0.000, 0.000, 0.000, 20:38:27.056, 1561570707056
64, 14117.23, 16413.40, 19679.59, 21853.99, -139.63, 7105.02, 8153.11, -2161.06, 0.000, 0.000, 0.000, 20:38:27.056, 1561570707056
65, 13329.57, 13708.48, 17245.80, 20995.24, -1517.86, 6457.24, 6771.19, -3285.42, 0.000, 0.000, 0.000, 20:38:27.056, 1561570707056
66, 13562.84, 14456.26, 17547.37, 21159.23, -827.51, 6628.61, 7297.15, -2983.78, 0.000, 0.000, 0.000, 20:38:27.056, 1561570707056
67, 14293.52, 17061.38, 19594.72, 21867.58, 612.12, 7219.12, 8600.71, -2069.68, 0.000, 0.000, 0.000, 20:38:27.056, 1561570707056
68, 14824.97, 18957.92, 21411.85, 22469.38, 1468.20, 7663.12, 9516.32, -1308.23, 0.238, -0.098, -0.988, 20:38:27.056, 1561570707056
69, 14120.40, 16425.42, 19689.56, 21861.35, -133.60, 7107.92, 8167.75, -2161.55, 0.000, 0.000, 0.000, 20:38:27.056, 1561570707056
70, 13322.29, 13705.40, 17242.38, 20991.69, -1526.11, 6451.03, 6768.24, -3295.50, 0.000, 0.000, 0.000, 20:38:27.056, 1561570707056
71, 13558.43, 14447.94, 17540.71, 21152.04, -837.79, 6622.71, 7292.21, -2991.04, 0.000, 0.000, 0.000, 20:38:27.056, 1561570707056
72, 14286.61, 17047.32, 19582.25, 21857.50, 600.66, 7210.09, 8591.90, -2078.18, 0.000, 0.000, 0.000, 20:38:27.056, 1561570707056
73, 14818.78, 18945.03, 21402.49, 22461.04, 1466.97, 7656.70, 9512.43, -1313.59, 0.000, 0.000, 0.000, 20:38:27.056, 1561570707056
74, 14120.40, 16422.23, 19689.67, 21858.40, -130.33, 7103.72, 8169.92, -2159.31, 0.000, 0.000, 0.000, 20:38:27.057, 1561570707057
75, 13326.18, 13702.20, 17244.26, 20993.90, -1523.99, 6449.42, 6772.42, -3289.46, 0.000, 0.000, 0.000, 20:38:27.116, 1561570707116
76, 13556.62, 14431.60, 17531.01, 21151.86, -844.05, 6622.62, 7286.67, -2990.48, 0.000, 0.000, 0.000, 20:38:27.117, 1561570707117
77, 14287.17, 17028.30, 19565.51, 21853.37, 594.00, 7213.13, 8583.76, -2077.64, 0.000, 0.000, 0.000, 20:38:27.117, 1561570707117
78, 14825.78, 18958.71, 21406.87, 22461.47, 1471.84, 7661.13, 9514.67, -1307.80, 0.242, -0.094, -0.990, 20:38:27.117, 1561570707117
79, 14132.56, 16450.59, 19712.63, 21864.74, -118.73, 7114.02, 8184.05, -2146.46, 0.000, 0.000, 0.000, 20:38:27.117, 1561570707117
80, 13333.51, 13716.17, 17258.94, 20993.54, -1520.83, 6456.93, 6788.34, -3280.65, 0.000, 0.000, 0.000, 20:38:27.117, 1561570707117
81, 13562.61, 14445.93, 17547.21, 21152.86, -837.30, 6630.71, 7302.02, -2982.42, 0.000, 0.000, 0.000, 20:38:27.117, 1561570707117
82, 14289.29, 17032.07, 19574.29, 21855.45, 594.31, 7220.22, 8594.56, -2071.89, 0.000, 0.000, 0.000, 20:38:27.117, 1561570707117
83, 14832.01, 18967.31, 21418.04, 22470.45, 1471.91, 7672.86, 9531.54, -1296.78, 0.000, 0.000, 0.000, 20:38:27.117, 1561570707117
84, 14140.12, 16478.67, 19738.22, 21878.85, -102.95, 7124.42, 8205.97, -2127.71, 0.000, 0.000, 0.000, 20:38:27.117, 1561570707117
85, 13337.24, 13721.87, 17268.98, 21005.63, -1516.12, 6465.04, 6784.18, -3273.30, 0.000, 0.000, 0.000, 20:38:27.117, 1561570707117
86, 13559.89, 14424.38, 17533.02, 21155.46, -847.78, 6630.18, 7283.63, -2988.83, 0.000, 0.000, 0.000, 20:38:27.117, 1561570707117
87, 14285.58, 17011.85, 19556.97, 21855.58, 585.24, 7213.89, 8581.50, -2079.92, 0.000, 0.000, 0.000, 20:38:27.117, 1561570707117
88, 14829.60, 18961.97, 21406.91, 22470.34, 1471.68, 7669.08, 9520.66, -1300.85, 0.248, -0.098, -0.990, 20:38:27.119, 1561570707119
89, 14146.22, 16496.23, 19747.07, 21886.11, -97.77, 7127.35, 8205.84, -2124.29, 0.000, 0.000, 0.000, 20:38:27.119, 1561570707119
90, 13343.75, 13731.46, 17276.15, 21015.29, -1515.02, 6468.06, 6786.28, -3271.11, 0.000, 0.000, 0.000, 20:38:27.178, 1561570707178
91, 13562.10, 14425.41, 17530.99, 21163.30, -850.55, 6629.73, 7277.66, -2990.60, 0.000, 0.000, 0.000, 20:38:27.178, 1561570707178
92, 14293.29, 17013.59, 19555.96, 21864.86, 583.49, 7221.40, 8574.15, -2077.57, 0.000, 0.000, 0.000, 20:38:27.178, 1561570707178
93, 14838.56, 18976.92, 21418.78, 22478.25, 1482.64, 7677.31, 9523.99, -1299.44, 0.000, 0.000, 0.000, 20:38:27.178, 1561570707178
94, 14154.26, 16520.69, 19771.82, 21894.34, -80.11, 7137.27, 8211.45, -2122.50, 0.000, 0.000, 0.000, 20:38:27.178, 1561570707178
95, 13339.32, 13729.96, 17282.59, 21009.14, -1516.99, 6465.20, 6780.42, -3278.15, 0.000, 0.000, 0.000, 20:38:27.178, 1561570707178
96, 13544.44, 14391.24, 17507.16, 21143.65, -872.52, 6616.63, 7256.78, -3010.15, 0.000, 0.000, 0.000, 20:38:27.178, 1561570707178
97, 14276.26, 16976.91, 19527.06, 21844.22, 565.34, 7204.97, 8556.11, -2097.87, 0.000, 0.000, 0.000, 20:38:27.178, 1561570707178
98, 14830.43, 18964.76, 21407.25, 22464.84, 1474.72, 7667.74, 9522.76, -1305.19, 0.246, -0.092, -0.990, 20:38:27.178, 1561570707178
99, 14146.42, 16514.09, 19763.70, 21879.03, -88.65, 7127.93, 8219.65, -2121.38, 0.000, 0.000, 0.000, 20:38:27.178, 1561570707178
100, 13330.20, 13724.84, 17273.03, 20992.67, -1524.12, 6456.93, 6782.10, -3277.79, 0.000, 0.000, 0.000, 20:38:27.178, 1561570707178
101, 13547.97, 14400.87, 17511.83, 21137.73, -866.29, 6618.22, 7268.97, -3001.26, 0.000, 0.000, 0.000, 20:38:27.178, 1561570707178
102, 14267.16, 16967.46, 19513.47, 21829.94, 553.74, 7195.79, 8549.32, -2105.13, 0.000, 0.000, 0.000, 20:38:27.178, 1561570707178
103, 14823.92, 18968.72, 21404.48, 22457.56, 1470.45, 7660.86, 9517.33, -1311.85, 0.000, 0.000, 0.000, 20:38:27.178, 1561570707178
104, 14156.34, 16558.82, 19795.38, 21890.58, -70.16, 7136.22, 8235.14, -2111.77, 0.000, 0.000, 0.000, 20:38:27.178, 1561570707178
105, 13337.87, 13746.59, 17289.41, 21002.64, -1520.97, 6461.29, 6787.02, -3279.05, 0.000, 0.000, 0.000, 20:38:27.237, 1561570707237
106, 13546.48, 14399.13, 17511.52, 21140.86, -871.20, 6616.97, 7273.53, -3005.62, 0.000, 0.000, 0.000, 20:38:27.237, 1561570707237
107, 14266.92, 16965.15, 19519.20, 21839.29, 559.53, 7201.06, 8568.83, -2097.04, 0.000, 0.000, 0.000, 20:38:27.237, 1561570707237
108, 14824.37, 18966.86, 21406.40, 22463.86, 1476.56, 7663.83, 9531.05, -1306.50, 0.244, -0.092, -0.988, 20:38:27.237, 1561570707237
109, 14152.57, 16556.96, 19794.64, 21890.29, -68.17, 7133.02, 8241.65, -2107.79, 0.000, 0.000, 0.000, 20:38:27.237, 1561570707237
110, 13331.45, 13737.20, 17284.96, 21002.79, -1523.87, 6462.98, 6792.43, -3274.51, 0.000, 0.000, 0.000, 20:38:27.237, 1561570707237
111, 13533.42, 14378.52, 17494.13, 21131.81, -884.21, 6612.12, 7261.59, -3014.45, 0.000, 0.000, 0.000, 20:38:27.237, 1561570707237
112, 14256.86, 16946.15, 19498.28, 21827.37, 542.99, 7193.19, 8544.00, -2111.32, 0.000, 0.000, 0.000, 20:38:27.237, 1561570707237
113, 14821.24, 18964.56, 21397.99, 22458.99, 1472.71, 7664.93, 9520.57, -1311.31, 0.000, 0.000, 0.000, 20:38:27.237, 1561570707237
114, 14155.45, 16576.97, 19806.42, 21890.96, -58.43, 7137.27, 8243.23, -2105.44, 0.000, 0.000, 0.000, 20:38:27.237, 1561570707237
115, 13334.63, 13745.72, 17288.98, 21000.20, -1523.87, 6462.22, 6779.04, -3280.59, 0.000, 0.000, 0.000, 20:38:27.237, 1561570707237
116, 13538.52, 14379.26, 17489.99, 21128.32, -891.97, 6610.30, 7248.69, -3021.02, 0.000, 0.000, 0.000, 20:38:27.237, 1561570707237
117, 14259.25, 16937.39, 19487.52, 21819.59, 533.49, 7186.49, 8537.54, -2117.22, 0.000, 0.000, 0.000, 20:38:27.237, 1561570707237
118, 14824.97, 18965.19, 21397.68, 22452.82, 1470.81, 7657.35, 9517.55, -1316.79, 0.244, -0.096, -0.990, 20:38:27.237, 1561570707237
119, 14169.46, 16584.26, 19820.19, 21900.33, -54.36, 7143.82, 8248.96, -2103.77, 0.000, 0.000, 0.000, 20:38:27.237, 1561570707237
120, 13337.13, 13736.53, 17284.71, 20996.29, -1533.84, 6458.27, 6778.73, -3286.04, 0.000, 0.000, 0.000, 20:38:27.296, 1561570707296
121, 13533.60, 14360.86, 17478.37, 21118.44, -904.73, 6598.95, 7237.45, -3032.53, 0.000, 0.000, 0.000, 20:38:27.297, 1561570707297
122, 14248.81, 16905.38, 19464.32, 21807.05, 515.39, 7173.73, 8518.56, -2135.08, 0.000, 0.000, 0.000, 20:38:27.297, 1561570707297
123, 14828.91, 18973.05, 21404.41, 22452.35, 1478.25, 7655.58, 9525.80, -1316.32, 0.000, 0.000, 0.000, 20:38:27.297, 1561570707297
124, 14177.22, 16623.30, 19850.52, 21905.47, -33.73, 7149.74, 8272.74, -2088.39, 0.000, 0.000, 0.000, 20:38:27.297, 1561570707297
125, 13340.71, 13754.68, 17308.79, 21004.47, -1524.08, 6464.95, 6792.76, -3274.44, 0.000, 0.000, 0.000, 20:38:27.297, 1561570707297
126, 13531.81, 14356.59, 17483.73, 21122.46, -902.65, 6599.84, 7238.46, -3030.36, 0.000, 0.000, 0.000, 20:38:27.297, 1561570707297
127, 14244.90, 16897.14, 19461.55, 21807.10, 513.82, 7173.59, 8520.57, -2130.43, 0.000, 0.000, 0.000, 20:38:27.297, 1561570707297
128, 14817.28, 18954.12, 21386.28, 22445.49, 1464.69, 7651.40, 9515.18, -1321.70, 0.242, -0.098, -0.988, 20:38:27.297, 1561570707297
129, 14173.55, 16625.12, 19849.40, 21904.71, -32.25, 7145.27, 8269.77, -2088.90, 0.000, 0.000, 0.000, 20:38:27.298, 1561570707298
130, 13336.82, 13752.98, 17303.24, 21000.65, -1527.25, 6455.36, 6779.42, -3284.01, 0.000, 0.000, 0.000, 20:38:27.298, 1561570707298
131, 13528.30, 14352.03, 17472.45, 21119.63, -912.15, 6597.09, 7228.26, -3038.70, 0.000, 0.000, 0.000, 20:38:27.298, 1561570707298
132, 14237.59, 16889.89, 19447.20, 21806.18, 503.25, 7169.68, 8507.43, -2141.32, 0.000, 0.000, 0.000, 20:38:27.298, 1561570707298
133, 14818.00, 18962.46, 21385.16, 22451.43, 1466.59, 7654.60, 9513.08, -1325.41, 0.000, 0.000, 0.000, 20:38:27.298, 1561570707298
134, 14179.12, 16647.71, 19862.01, 21915.97, -21.82, 7154.66, 8279.33, -2084.10, 0.000, 0.000, 0.000, 20:38:27.298, 1561570707298
135, 13335.05, 13755.31, 17302.75, 21006.59, -1533.22, 6459.50, 6784.27, -3283.23, 0.000, 0.000, 0.000, 20:38:27.358, 1561570707358
136, 13522.36, 14338.11, 17461.32, 21119.63, -922.77, 6595.13, 7227.12, -3044.33, 0.000, 0.000, 0.000, 20:38:27.358, 1561570707358
137, 14242.13, 16881.24, 19442.35, 21816.11, 505.06, 7178.13, 8512.28, -2140.85, 0.244, -0.094, -0.988, 20:38:27.358, 1561570707358
138, 14814.42, 18957.23, 21378.95, 22451.72, 1464.31, 7652.95, 9513.53, -1327.76, 0.000, 0.000, 0.000, 20:38:27.358, 1561570707358
139, 14178.07, 16641.59, 19858.12, 21918.10, -25.68, 7154.30, 8274.24, -2086.49, 0.000, 0.000, 0.000, 20:38:27.358, 1561570707358
140, 13339.43, 13752.85, 17301.86, 21013.75, -1526.40, 6466.83, 6779.80, -3282.85, 0.000, 0.000, 0.000, 20:38:27.358, 1561570707358
141, 13528.48, 14341.17, 17464.20, 21130.42, -915.04, 6603.40, 7227.75, -3040.08, 0.000, 0.000, 0.000, 20:38:27.358, 1561570707358
142, 14235.85, 16860.17, 19422.19, 21806.92, 494.62, 7169.97, 8493.93, -2150.26, 0.000, 0.000, 0.000, 20:38:27.358, 1561570707358
143, 14823.16, 18970.82, 21388.00, 22449.42, 1478.55, 7654.82, 9512.05, -1327.09, 0.000, 0.000, 0.000, 20:38:27.358, 1561570707358
144, 14197.22, 16696.26, 19904.03, 21929.09, 8.02, 7165.43, 8293.66, -2066.80, 0.000, 0.000, 0.000, 20:38:27.358, 1561570707358
145, 13351.77, 13787.63, 17336.04, 21023.07, -1512.01, 6477.02, 6797.23, -3263.29, 0.000, 0.000, 0.000, 20:38:27.358, 1561570707358
146, 13522.96, 14336.45, 17463.60, 21122.29, -922.14, 6605.30, 7228.20, -3034.61, 0.000, 0.000, 0.000, 20:38:27.358, 1561570707358
147, 14229.97, 16854.02, 19419.71, 21800.75, 489.06, 7174.51, 8503.54, -2140.69, 0.242, -0.096, -0.992, 20:38:27.358, 1561570707358
148, 14814.02, 18958.62, 21378.24, 22446.63, 1468.69, 7660.79, 9521.64, -1321.75, 0.000, 0.000, 0.000, 20:38:27.358, 1561570707358
149, 14195.75, 16705.63, 19911.29, 21932.74, 12.58, 7177.01, 8319.59, -2052.92, 0.000, 0.000, 0.000, 20:38:27.358, 1561570707358
150, 13342.83, 13780.19, 17327.79, 21015.96, -1523.92, 6475.99, 6801.99, -3264.83, 0.000, 0.000, 0.000, 20:38:27.418, 1561570707418
151, 13520.93, 14327.20, 17450.30, 21120.79, -938.26, 6603.82, 7225.94, -3041.60, 0.000, 0.000, 0.000, 20:38:27.418, 1561570707418
152, 14229.14, 16845.46, 19408.87, 21803.28, 478.30, 7173.10, 8495.63, -2152.47, 0.000, 0.000, 0.000, 20:38:27.418, 1561570707418
153, 14823.74, 18961.68, 21382.10, 22457.15, 1477.96, 7664.01, 9515.58, -1326.15, 0.000, 0.000, 0.000, 20:38:27.418, 1561570707418
154, 14210.39, 16727.71, 19927.56, 21943.24, 27.56, 7181.57, 8319.43, -2053.14, 0.000, 0.000, 0.000, 20:38:27.418, 1561570707418
155, 13349.56, 13790.53, 17335.95, 21020.90, -1517.55, 6475.14, 6791.13, -3268.81, 0.000, 0.000, 0.000, 20:38:27.423, 1561570707423
156, 13520.64, 14322.01, 17447.84, 21114.44, -933.21, 6596.09, 7204.82, -3052.78, 0.000, 0.000, 0.000, 20:38:27.423, 1561570707423
157, 14226.42, 16829.88, 19392.60, 21793.38, 475.85, 7166.30, 8481.17, -2160.30, 0.242, -0.096, -0.992, 20:38:27.423, 1561570707423
158, 14817.53, 18957.88, 21370.08, 22447.03, 1470.61, 7658.96, 9510.29, -1331.16, 0.000, 0.000, 0.000, 20:38:27.423, 1561570707423
159, 14198.23, 16714.63, 19915.20, 21933.27, 17.95, 7171.20, 8312.19, -2061.93, 0.000, 0.000, 0.000, 20:38:27.423, 1561570707423
160, 13346.36, 13782.84, 17329.69, 21019.31, -1517.93, 6467.66, 6794.71, -3273.79, 0.000, 0.000, 0.000, 20:38:27.423, 1561570707423
161, 13516.93, 14310.50, 17439.48, 21115.71, -940.72, 6589.99, 7207.97, -3058.21, 0.000, 0.000, 0.000, 20:38:27.423, 1561570707423
162, 14219.69, 16806.01, 19376.68, 21790.60, 459.89, 7159.02, 8467.09, -2170.89, 0.000, 0.000, 0.000, 20:38:27.423, 1561570707423
163, 14822.54, 18963.76, 21374.35, 22450.43, 1470.83, 7661.62, 9512.12, -1326.62, 0.000, 0.000, 0.000, 20:38:27.423, 1561570707423
164, 14208.65, 16743.29, 19939.34, 21943.29, 30.15, 7177.35, 8328.46, -2044.54, 0.000, 0.000, 0.000, 20:38:27.423, 1561570707423
165, 13347.77, 13790.31, 17341.62, 21018.87, -1520.50, 6470.29, 6798.46, -3265.93, 0.000, 0.000, 0.000, 20:38:27.477, 1561570707477
166, 13518.25, 14311.35, 17444.82, 21112.43, -944.29, 6592.71, 7205.62, -3054.79, 0.000, 0.000, 0.000, 20:38:27.477, 1561570707477
167, 14228.16, 16824.74, 19393.15, 21795.32, 467.51, 7165.03, 8475.98, -2162.51, 0.246, -0.098, -0.992, 20:38:27.477, 1561570707477
168, 14818.33, 18962.91, 21378.33, 22447.95, 1470.23, 7658.00, 9513.46, -1331.31, 0.000, 0.000, 0.000, 20:38:27.477, 1561570707477
169, 14211.51, 16766.06, 19962.05, 21944.92, 42.58, 7180.56, 8338.90, -2043.55, 0.000, 0.000, 0.000, 20:38:27.477, 1561570707477
170, 13353.07, 13800.64, 17359.01, 21027.56, -1511.78, 6479.44, 6806.06, -3258.19, 0.000, 0.000, 0.000, 20:38:27.478, 1561570707478
171, 13507.56, 14291.39, 17435.84, 21109.28, -948.76, 6592.83, 7205.46, -3049.05, 0.000, 0.000, 0.000, 20:38:27.478, 1561570707478
172, 14211.48, 16787.48, 19368.30, 21784.08, 454.17, 7161.97, 8469.79, -2163.29, 0.000, 0.000, 0.000, 20:38:27.478, 1561570707478
173, 14810.96, 18945.58, 21361.70, 22439.72, 1462.21, 7656.05, 9510.17, -1333.37, 0.000, 0.000, 0.000, 20:38:27.478, 1561570707478
174, 14205.43, 16767.65, 19958.07, 21942.57, 42.27, 7177.57, 8342.81, -2038.50, 0.000, 0.000, 0.000, 20:38:27.479, 1561570707479
175, 13340.26, 13791.83, 17349.09, 21020.32, -1519.76, 6470.67, 6801.59, -3264.18, 0.000, 0.000, 0.000, 20:38:27.479, 1561570707479
176, 13500.30, 14282.00, 17426.92, 21103.62, -955.98, 6585.85, 7197.04, -3061.72, 0.000, 0.000, 0.000, 20:38:27.479, 1561570707479
177, 14205.38, 16771.43, 19354.06, 21777.06, 445.38, 7153.81, 8458.32, -2177.51, 0.240, -0.094, -0.994, 20:38:27.479, 1561570707479
178, 14808.99, 18947.73, 21359.04, 22438.00, 1467.37, 7653.04, 9512.54, -1333.44, 0.000, 0.000, 0.000, 20:38:27.480, 1561570707480
179, 14219.35, 16803.57, 19984.76, 21952.54, 67.19, 7188.46, 8364.67, -2023.26, 0.000, 0.000, 0.000, 20:38:27.480, 1561570707480
180, 13347.01, 13808.88, 17361.61, 21022.66, -1511.29, 6476.10, 6810.38, -3256.16, 0.000, 0.000, 0.000, 20:38:27.537, 1561570707537
181, 13499.45, 14276.57, 17415.32, 21097.32, -969.37, 6583.68, 7191.32, -3068.69, 0.000, 0.000, 0.000, 20:38:27.537, 1561570707537
182, 14201.11, 16760.21, 19335.22, 21768.43, 430.07, 7146.28, 8446.57, -2187.10, 0.000, 0.000, 0.000, 20:38:27.537, 1561570707537
183, 14806.53, 18939.73, 21344.13, 22436.66, 1455.41, 7650.29, 9499.85, -1341.40, 0.000, 0.000, 0.000, 20:38:27.537, 1561570707537
184, 14223.58, 16808.20, 19984.38, 21957.19, 64.40, 7191.47, 8361.00, -2024.33, 0.000, 0.000, 0.000, 20:38:27.537, 1561570707537
185, 13349.31, 13810.34, 17359.79, 21025.86, -1516.99, 6477.94, 6813.57, -3252.67, 0.000, 0.000, 0.000, 20:38:27.537, 1561570707537
186, 13495.22, 14266.25, 17403.16, 21092.92, -981.64, 6581.31, 7190.94, -3068.60, 0.000, 0.000, 0.000, 20:38:27.537, 1561570707537
187, 14190.43, 16734.84, 19312.40, 21757.68, 413.98, 7139.17, 8443.42, -2192.84, 0.244, -0.094, -0.988, 20:38:27.537, 1561570707537
188, 14809.68, 18949.00, 21350.81, 22434.36, 1465.02, 7652.19, 9518.92, -1335.54, 0.000, 0.000, 0.000, 20:38:27.537, 1561570707537
189, 14228.92, 16831.98, 20008.50, 21960.86, 83.42, 7194.87, 8384.61, -2012.22, 0.000, 0.000, 0.000, 20:38:27.537, 1561570707537
190, 13351.90, 13821.16, 17378.10, 21024.45, -1505.46, 6475.88, 6818.49, -3255.82, 0.000, 0.000, 0.000, 20:38:27.537, 1561570707537
191, 13493.77, 14270.22, 17417.13, 21088.96, -969.73, 6577.65, 7189.28, -3071.71, 0.000, 0.000, 0.000, 20:38:27.537, 1561570707537
192, 14188.02, 16732.85, 19320.76, 21755.62, 419.18, 7138.05, 8439.04, -2193.80, 0.000, 0.000, 0.000, 20:38:27.537, 1561570707537
193, 14807.49, 18944.96, 21352.42, 22430.31, 1462.39, 7648.81, 9507.43, -1343.79, 0.000, 0.000, 0.000, 20:38:27.537, 1561570707537
194, 14232.99, 16856.99, 20025.58, 21964.72, 90.55, 7198.76, 8386.98, -2013.58, 0.000, 0.000, 0.000, 20:38:27.538, 1561570707538
195, 13354.47, 13832.67, 17386.48, 21032.14, -1509.73, 6482.70, 6820.63, -3255.38, 0.000, 0.000, 0.000, 20:38:27.598, 1561570707598
196, 13493.43, 14259.50, 17405.32, 21093.61, -985.15, 6578.74, 7180.01, -3081.10, 0.000, 0.000, 0.000, 20:38:27.598, 1561570707598
197, 14191.35, 16729.32, 19308.73, 21762.37, 406.80, 7140.11, 8428.42, -2201.85, 0.242, -0.098, -0.990, 20:38:27.599, 1561570707599
198, 14807.63, 18950.10, 21347.39, 22437.13, 1460.62, 7653.75, 9499.85, -1345.51, 0.000, 0.000, 0.000, 20:38:27.599, 1561570707599
199, 14241.19, 16883.12, 20045.94, 21978.71, 109.48, 7211.19, 8398.00, -2001.38, 0.000, 0.000, 0.000, 20:38:27.599, 1561570707599
200, 13359.39, 13845.59, 17397.93, 21038.60, -1499.91, 6489.78, 6816.86, -3250.19, 0.000, 0.000, 0.000, 20:38:27.599, 1561570707599
201, 13496.50, 14259.79, 17402.87, 21095.04, -985.80, 6583.04, 7169.05, -3082.28, 0.000, 0.000, 0.000, 20:38:27.599, 1561570707599
202, 14190.07, 16719.78, 19300.60, 21763.22, 408.48, 7143.44, 8426.79, -2201.51, 0.000, 0.000, 0.000, 20:38:27.599, 1561570707599
203, 14810.91, 18949.61, 21345.80, 22443.63, 1470.16, 7661.48, 9515.00, -1338.47, 0.000, 0.000, 0.000, 20:38:27.599, 1561570707599
204, 14246.13, 16897.63, 20054.10, 21986.38, 117.82, 7217.06, 8415.34, -1990.42, 0.000, 0.000, 0.000, 20:38:27.599, 1561570707599
205, 13361.09, 13844.65, 17398.20, 21043.18, -1503.89, 6489.45, 6825.37, -3242.81, 0.000, 0.000, 0.000, 20:38:27.599, 1561570707599
206, 13488.74, 14227.91, 17381.07, 21090.01, -1006.90, 6573.89, 7158.12, -3091.60, 0.000, 0.000, 0.000, 20:38:27.599, 1561570707599
207, 14184.37, 16686.87, 19272.48, 21757.43, 386.35, 7133.58, 8405.62, -2216.53, 0.240, -0.100, -0.990, 20:38:27.599, 1561570707599
208, 14810.67, 18944.42, 21335.59, 22438.76, 1456.77, 7652.99, 9500.36, -1348.84, 0.000, 0.000, 0.000, 20:38:27.599, 1561570707599
209, 14256.21, 16912.20, 20064.62, 21991.66, 118.58, 7220.24, 8415.12, -1986.04, 0.000, 0.000, 0.000, 20:38:27.599, 1561570707599
210, 13367.64, 13856.32, 17407.67, 21048.77, -1502.15, 6494.12, 6824.08, -3241.72, 0.000, 0.000, 0.000, 20:38:27.657, 1561570707657
211, 13494.46, 14239.33, 17394.11, 21097.50, -993.96, 6580.11, 7168.07, -3082.89, 0.000, 0.000, 0.000, 20:38:27.657, 1561570707657
212, 14185.96, 16682.34, 19276.26, 21762.13, 393.14, 7134.12, 8415.23, -2213.14, 0.000, 0.000, 0.000, 20:38:27.657, 1561570707657
213, 14815.21, 18947.93, 21343.95, 22446.31, 1470.57, 7655.07, 9510.17, -1344.37, 0.000, 0.000, 0.000, 20:38:27.657, 1561570707657
214, 14263.63, 16939.11, 20093.77, 22001.25, 142.63, 7224.11, 8434.52, -1974.31, 0.000, 0.000, 0.000, 20:38:27.657, 1561570707657
215, 13366.77, 13859.94, 17419.47, 21048.79, -1497.37, 6490.43, 6833.08, -3236.89, 0.000, 0.000, 0.000, 20:38:27.657, 1561570707657
216, 13492.18, 14235.36, 17395.22, 21094.97, -999.82, 6573.07, 7165.88, -3087.22, 0.000, 0.000, 0.000, 20:38:27.657, 1561570707657
217, 14186.90, 16680.06, 19277.39, 21758.66, 388.50, 7128.95, 8412.10, -2214.52, 0.238, -0.104, -0.990, 20:38:27.657, 1561570707657
218, 14814.80, 18944.24, 21341.40, 22441.46, 1462.68, 7648.19, 9506.96, -1347.41, 0.000, 0.000, 0.000, 20:38:27.657, 1561570707657
219, 14264.28, 16950.27, 20099.65, 22004.78, 140.84, 7228.60, 8441.94, -1970.28, 0.000, 0.000, 0.000, 20:38:27.657, 1561570707657
220, 13371.91, 13869.57, 17427.48, 21054.72, -1497.86, 6499.73, 6836.64, -3231.59, 0.000, 0.000, 0.000, 20:38:27.657, 1561570707657
221, 13491.27, 14226.26, 17386.88, 21089.96, -1008.53, 6577.34, 7153.47, -3093.77, 0.000, 0.000, 0.000, 20:38:27.657, 1561570707657
222, 14183.57, 16669.08, 19265.33, 21750.91, 380.00, 7133.85, 8400.01, -2221.23, 0.000, 0.000, 0.000, 20:38:27.657, 1561570707657
223, 14815.56, 18945.94, 21339.72, 22438.92, 1463.64, 7658.96, 9497.68, -1349.73, 0.000, 0.000, 0.000, 20:38:27.657, 1561570707657
224, 14272.66, 16974.36, 20120.71, 22006.39, 158.05, 7236.35, 8442.88, -1963.98, 0.000, 0.000, 0.000, 20:38:27.657, 1561570707657
225, 13374.81, 13879.56, 17439.39, 21054.92, -1492.54, 6500.89, 6829.98, -3229.60, 0.000, 0.000, 0.000, 20:38:27.716, 1561570707716
226, 13487.02, 14219.71, 17383.35, 21089.90, -1014.52, 6574.23, 7145.18, -3089.77, 0.000, 0.000, 0.000, 20:38:27.716, 1561570707716
227, 14179.57, 16654.82, 19255.78, 21753.68, 370.88, 7130.56, 8390.08, -2218.50, 0.242, -0.100, -0.990, 20:38:27.717, 1561570707717
228, 14809.73, 18937.00, 21331.68, 22436.72, 1456.35, 7651.65, 9492.88, -1349.42, 0.000, 0.000, 0.000, 20:38:27.717, 1561570707717
229, 14277.04, 16974.58, 20121.60, 22013.74, 157.54, 7237.81, 8445.63, -1960.72, 0.000, 0.000, 0.000, 20:38:27.717, 1561570707717
230, 13375.37, 13874.60, 17429.17, 21059.63, -1499.13, 6502.03, 6829.64, -3230.88, 0.000, 0.000, 0.000, 20:38:27.717, 1561570707717
231, 13486.59, 14215.35, 17372.54, 21096.38, -1022.30, 6576.15, 7143.64, -3096.32, 0.000, 0.000, 0.000, 20:38:27.717, 1561570707717
232, 14168.66, 16633.59, 19228.04, 21748.56, 353.22, 7123.57, 8370.10, -2237.86, 0.000, 0.000, 0.000, 20:38:27.717, 1561570707717
233, 14813.15, 18947.08, 21328.19, 22445.53, 1460.57, 7657.69, 9486.06, -1354.74, 0.000, 0.000, 0.000, 20:38:27.717, 1561570707717
234, 14282.09, 17006.59, 20137.78, 22024.96, 173.87, 7245.23, 8457.74, -1952.89, 0.000, 0.000, 0.000, 20:38:27.717, 1561570707717
