%OpenBCI Raw EEG Data
%Number of channels = 8
%Sample Rate = 250.0 Hz
%First Column = SampleIndex
%Last Column = Timestamp 
%Other Columns = EEG data in microvolts followed by Accel Data (in G) interleaved with Aux Data
0, -540.58, -567.67, -801.06, -487.36, -682.98, -535.30, -629.96, -572.41, 0.004, -0.016, 0.510, 13:14:51.200, 1559988891200
1, -551.44, -577.88, -814.59, -492.50, -692.28, -541.69, -640.29, -582.53, 0.000, 0.000, 0.000, 13:14:51.200, 1559988891200
2, -563.49, -587.90, -829.76, -494.00, -700.28, -547.19, -649.45, -592.75, 0.000, 0.000, 0.000, 13:14:51.201, 1559988891201
3, -573.99, -596.88, -844.99, -494.00, -706.58, -552.58, -655.22, -602.94, 0.000, 0.000, 0.000, 13:14:51.201, 1559988891201
4, -552.38, -574.98, -817.07, -483.18, -691.29, -536.71, -637.43, -580.92, 0.000, 0.000, 0.000, 13:14:51.202, 1559988891202
5, -540.55, -566.19, -800.39, -487.31, -683.38, -533.33, -630.19, -572.00, 0.000, 0.000, 0.000, 13:14:51.202, 1559988891202
6, -551.35, -577.52, -814.52, -492.74, -691.45, -541.14, -639.51, -583.36, 0.000, 0.000, 0.000, 13:14:51.202, 1559988891202
7, -563.80, -587.94, -830.26, -494.93, -699.23, -547.42, -647.15, -593.75, 0.006, -0.024, 0.762, 13:14:51.202, 1559988891202
8, -572.43, -596.37, -844.99, -494.51, -708.30, -552.76, -654.95, -602.98, 0.000, 0.000, 0.000, 13:14:51.203, 1559988891203
9, -552.07, -576.76, -818.74, -484.88, -691.34, -538.88, -638.41, -582.29, 0.000, 0.000, 0.000, 13:14:51.204, 1559988891204
10, -542.92, -567.35, -800.84, -486.80, -682.18, -534.05, -630.34, -571.85, 0.000, 0.000, 0.000, 13:14:51.205, 1559988891205
11, -553.21, -578.84, -815.86, -493.24, -693.28, -542.59, -639.28, -584.30, 0.000, 0.000, 0.000, 13:14:51.206, 1559988891206
12, -562.41, -589.50, -831.84, -495.92, -700.70, -549.56, -649.50, -595.54, 0.000, 0.000, 0.000, 13:14:51.207, 1559988891207
13, -573.64, -596.28, -844.49, -494.33, -705.78, -552.09, -656.76, -602.33, 0.000, 0.000, 0.000, 13:14:51.207, 1559988891207
14, -553.03, -576.70, -818.45, -484.72, -688.14, -537.87, -638.84, -581.41, 0.000, 0.000, 0.000, 13:14:51.208, 1559988891208
15, -541.69, -568.00, -802.32, -489.55, -682.44, -536.24, -628.06, -572.32, 0.000, 0.000, 0.000, 13:14:51.208, 1559988891208
16, -552.60, -577.88, -815.44, -493.55, -690.27, -542.97, -636.94, -583.02, 0.000, 0.000, 0.000, 13:14:51.209, 1559988891209
17, -565.03, -588.79, -831.19, -494.62, -702.11, -549.34, -648.11, -594.42, 0.006, -0.024, 0.888, 13:14:51.209, 1559988891209
18, -572.72, -597.35, -845.05, -494.80, -707.88, -552.33, -656.56, -603.14, 0.000, 0.000, 0.000, 13:14:51.210, 1559988891210
19, -552.36, -577.03, -819.08, -484.72, -690.53, -537.96, -639.39, -582.24, 0.000, 0.000, 0.000, 13:14:51.211, 1559988891211
20, -541.00, -566.28, -800.89, -486.53, -680.92, -533.96, -629.20, -571.74, 0.000, 0.000, 0.000, 13:14:51.212, 1559988891212
21, -552.24, -578.04, -815.41, -492.79, -690.98, -542.32, -638.46, -584.25, 0.000, 0.000, 0.000, 13:14:51.213, 1559988891213
22, -565.28, -589.35, -831.64, -495.34, -702.67, -548.65, -648.78, -595.38, 0.000, 0.000, 0.000, 13:14:51.214, 1559988891214
23, -572.54, -597.71, -846.26, -495.18, -708.97, -553.07, -656.05, -604.06, 0.000, 0.000, 0.000, 13:14:51.215, 1559988891215
24, -553.74, -577.95, -820.38, -484.47, -690.09, -538.88, -639.82, -583.13, 0.000, 0.000, 0.000, 13:14:51.215, 1559988891215
25, -541.81, -566.93, -801.56, -485.66, -683.38, -534.18, -630.16, -571.96, 0.000, 0.000, 0.000, 13:14:51.216, 1559988891216
26, -551.46, -578.15, -816.11, -492.54, -693.95, -542.23, -638.03, -584.21, 0.006, -0.026, 0.954, 13:14:51.217, 1559988891217
27, -563.51, -588.28, -831.24, -494.51, -701.31, -548.09, -648.02, -594.74, 0.000, 0.000, 0.000, 13:14:51.217, 1559988891217
28, -575.24, -597.66, -846.19, -494.91, -708.62, -552.45, -655.62, -604.57, 0.000, 0.000, 0.000, 13:14:51.217, 1559988891217
29, -556.00, -579.11, -821.07, -484.65, -692.81, -539.03, -637.83, -584.41, 0.000, 0.000, 0.000, 13:14:51.217, 1559988891217
30, -542.97, -567.56, -801.42, -485.95, -683.25, -533.83, -627.44, -572.70, 0.000, 0.000, 0.000, 13:14:51.218, 1559988891218
31, -552.11, -578.49, -815.84, -492.99, -691.92, -542.68, -638.72, -584.70, 0.000, 0.000, 0.000, 13:14:51.219, 1559988891219
32, -561.72, -588.05, -830.70, -495.00, -703.25, -549.00, -649.18, -594.78, 0.000, 0.000, 0.000, 13:14:51.220, 1559988891220
33, -573.26, -597.93, -846.48, -494.71, -708.53, -553.74, -657.50, -604.75, 0.000, 0.000, 0.000, 13:14:51.220, 1559988891220
34, -554.68, -578.22, -821.02, -484.63, -691.76, -540.26, -640.76, -584.19, 0.000, 0.000, 0.000, 13:14:51.229, 1559988891229
35, -544.02, -566.55, -801.58, -486.46, -684.12, -535.41, -629.02, -572.00, 0.000, 0.000, 0.000, 13:14:51.230, 1559988891230
36, -554.79, -578.75, -816.55, -493.12, -694.83, -544.02, -640.42, -584.32, 0.004, -0.028, 0.984, 13:14:51.230, 1559988891230
37, -565.63, -588.92, -831.91, -495.00, -701.80, -549.88, -650.53, -594.85, 0.000, 0.000, 0.000, 13:14:51.230, 1559988891230
38, -575.87, -597.78, -846.51, -494.47, -709.71, -553.74, -657.68, -604.48, 0.000, 0.000, 0.000, 13:14:51.231, 1559988891231
39, -555.37, -578.26, -821.00, -483.58, -691.94, -539.19, -641.52, -584.30, 0.000, 0.000, 0.000, 13:14:51.231, 1559988891231
40, -541.09, -567.31, -801.62, -485.73, -682.71, -534.88, -630.45, -571.82, 0.000, 0.000, 0.000, 13:14:51.231, 1559988891231
41, -553.74, -578.57, -816.04, -493.12, -693.15, -542.66, -639.64, -583.96, 0.000, 0.000, 0.000, 13:14:51.231, 1559988891231
42, -566.04, -588.79, -831.26, -494.85, -702.65, -548.36, -648.11, -594.71, 0.000, 0.000, 0.000, 13:14:51.231, 1559988891231
43, -572.56, -598.00, -846.62, -494.58, -710.56, -552.80, -657.90, -604.39, 0.000, 0.000, 0.000, 13:14:51.231, 1559988891231
44, -555.93, -578.22, -822.03, -484.54, -692.81, -538.79, -641.76, -584.21, 0.000, 0.000, 0.000, 13:14:51.232, 1559988891232
45, -543.21, -566.97, -802.11, -484.63, -684.52, -534.25, -630.19, -572.34, 0.000, 0.000, 0.000, 13:14:51.232, 1559988891232
46, -552.83, -578.60, -816.33, -491.63, -692.79, -542.75, -638.54, -583.89, -0.002, -0.032, 1.006, 13:14:51.232, 1559988891232
47, -565.34, -588.90, -832.18, -494.89, -702.00, -548.36, -647.33, -595.27, 0.000, 0.000, 0.000, 13:14:51.232, 1559988891232
48, -575.18, -599.41, -848.11, -496.19, -708.37, -553.76, -654.53, -605.06, 0.000, 0.000, 0.000, 13:14:51.232, 1559988891232
49, -554.61, -580.56, -823.59, -485.68, -691.23, -540.29, -638.84, -585.64, 0.000, 0.000, 0.000, 13:14:51.232, 1559988891232
50, -541.07, -567.64, -802.03, -485.28, -683.96, -534.23, -631.44, -572.56, 0.000, 0.000, 0.000, 13:14:51.232, 1559988891232
51, -553.90, -578.24, -816.20, -491.89, -693.02, -542.41, -641.58, -584.23, 0.000, 0.000, 0.000, 13:14:51.233, 1559988891233
52, -565.70, -589.21, -832.94, -495.14, -701.64, -549.70, -648.80, -595.65, 0.000, 0.000, 0.000, 13:14:51.233, 1559988891233
53, -574.33, -598.22, -847.71, -495.18, -708.77, -553.90, -659.02, -604.59, 0.000, 0.000, 0.000, 13:14:51.234, 1559988891234
54, -556.54, -579.69, -824.15, -485.37, -694.45, -541.49, -641.76, -585.64, 0.000, 0.000, 0.000, 13:14:51.234, 1559988891234
55, -543.01, -567.56, -803.48, -486.28, -684.05, -536.02, -630.99, -573.01, 0.000, 0.000, 0.000, 13:14:51.234, 1559988891234
56, -554.08, -578.15, -817.31, -492.68, -692.03, -543.80, -640.91, -584.54, 0.006, -0.032, 1.012, 13:14:51.234, 1559988891234
57, -566.15, -588.77, -832.38, -494.80, -699.77, -549.81, -649.39, -595.05, 0.000, 0.000, 0.000, 13:14:51.234, 1559988891234
58, -576.16, -598.11, -847.33, -495.09, -708.51, -553.99, -656.81, -604.77, 0.000, 0.000, 0.000, 13:14:51.234, 1559988891234
59, -557.05, -579.49, -823.08, -484.79, -691.92, -539.95, -641.14, -584.97, 0.000, 0.000, 0.000, 13:14:51.235, 1559988891235
60, -543.42, -567.76, -802.79, -485.17, -684.28, -534.43, -630.72, -571.87, 0.000, 0.000, 0.000, 13:14:51.243, 1559988891243
61, -555.24, -578.69, -816.51, -491.34, -692.55, -542.50, -639.39, -583.31, 0.000, 0.000, 0.000, 13:14:51.244, 1559988891244
62, -564.74, -589.50, -832.29, -495.43, -701.42, -549.90, -648.31, -594.78, 0.000, 0.000, 0.000, 13:14:51.245, 1559988891245
63, -576.50, -598.85, -847.71, -495.69, -706.65, -554.86, -658.88, -605.22, 0.000, 0.000, 0.000, 13:14:51.245, 1559988891245
64, -558.41, -580.61, -823.93, -484.36, -692.90, -540.89, -644.71, -586.04, 0.000, 0.000, 0.000, 13:14:51.245, 1559988891245
65, -545.36, -568.29, -802.83, -485.17, -682.78, -534.90, -632.22, -572.94, 0.000, 0.000, 0.000, 13:14:51.245, 1559988891245
66, -557.09, -579.67, -817.76, -492.52, -692.55, -544.13, -641.41, -585.59, 0.006, -0.030, 1.014, 13:14:51.245, 1559988891245
67, -567.06, -589.91, -833.47, -495.76, -702.49, -550.66, -650.23, -596.93, 0.000, 0.000, 0.000, 13:14:51.245, 1559988891245
68, -576.47, -598.47, -848.05, -495.07, -711.10, -554.61, -658.33, -605.93, 0.000, 0.000, 0.000, 13:14:51.246, 1559988891246
69, -559.71, -580.50, -824.58, -484.79, -694.89, -540.73, -641.34, -585.75, 0.000, 0.000, 0.000, 13:14:51.246, 1559988891246
70, -543.64, -568.81, -804.71, -486.31, -683.38, -536.29, -632.44, -573.19, 0.000, 0.000, 0.000, 13:14:51.246, 1559988891246
71, -555.15, -579.18, -817.72, -492.32, -693.42, -543.68, -639.93, -584.19, 0.000, 0.000, 0.000, 13:14:51.246, 1559988891246
72, -567.15, -590.13, -833.30, -494.64, -702.27, -550.23, -649.74, -594.76, 0.000, 0.000, 0.000, 13:14:51.246, 1559988891246
73, -578.44, -599.72, -849.34, -495.40, -709.53, -555.19, -658.82, -605.33, 0.000, 0.000, 0.000, 13:14:51.247, 1559988891247
74, -560.18, -580.90, -825.38, -484.07, -694.00, -541.05, -642.39, -585.75, 0.000, 0.000, 0.000, 13:14:51.247, 1559988891247
75, -542.79, -568.20, -804.39, -485.88, -683.36, -535.59, -630.70, -573.57, 0.000, 0.000, 0.000, 13:14:51.247, 1559988891247
76, -554.08, -578.73, -817.36, -492.50, -692.05, -542.92, -639.39, -584.34, 0.004, -0.032, 1.014, 13:14:51.247, 1559988891247
77, -566.21, -589.55, -833.36, -494.78, -701.11, -549.56, -649.92, -595.83, 0.000, 0.000, 0.000, 13:14:51.247, 1559988891247
78, -578.33, -600.26, -850.28, -495.94, -708.53, -555.53, -658.39, -607.21, 0.000, 0.000, 0.000, 13:14:51.248, 1559988891248
79, -560.96, -581.46, -826.59, -484.83, -694.33, -541.94, -642.08, -587.20, 0.000, 0.000, 0.000, 13:14:51.248, 1559988891248
80, -546.19, -568.34, -804.28, -485.39, -685.84, -535.44, -631.24, -572.92, 0.000, 0.000, 0.000, 13:14:51.248, 1559988891248
81, -555.78, -578.40, -817.34, -491.54, -697.24, -543.21, -642.52, -584.03, 0.000, 0.000, 0.000, 13:14:51.248, 1559988891248
82, -566.77, -589.39, -833.12, -495.11, -705.62, -549.76, -649.36, -595.58, 0.000, 0.000, 0.000, 13:14:51.248, 1559988891248
83, -576.92, -600.35, -850.01, -496.90, -712.37, -555.71, -657.77, -607.16, 0.000, 0.000, 0.000, 13:14:51.248, 1559988891248
84, -556.47, -581.73, -827.51, -486.24, -695.74, -542.83, -643.44, -589.06, 0.000, 0.000, 0.000, 13:14:51.248, 1559988891248
85, -542.16, -569.03, -805.15, -486.80, -684.88, -535.93, -632.08, -574.69, 0.000, 0.000, 0.000, 13:14:51.249, 1559988891249
86, -556.07, -578.91, -817.11, -491.58, -695.61, -542.48, -639.95, -584.59, 0.004, -0.030, 1.018, 13:14:51.249, 1559988891249
87, -566.82, -588.05, -831.60, -494.35, -701.64, -548.11, -650.61, -594.29, 0.000, 0.000, 0.000, 13:14:51.249, 1559988891249
88, -576.05, -598.45, -848.81, -495.40, -708.42, -553.90, -660.20, -605.75, 0.000, 0.000, 0.000, 13:14:51.249, 1559988891249
89, -560.07, -582.46, -827.93, -485.82, -693.75, -542.95, -645.27, -588.45, 0.000, 0.000, 0.000, 13:14:51.249, 1559988891249
90, -547.71, -568.87, -805.24, -485.30, -684.90, -537.25, -634.95, -574.46, 0.000, 0.000, 0.000, 13:14:51.251, 1559988891251
91, -557.39, -579.71, -818.43, -492.48, -693.60, -545.07, -641.27, -585.88, 0.000, 0.000, 0.000, 13:14:51.251, 1559988891251
92, -567.26, -590.33, -833.54, -494.96, -701.82, -550.66, -650.88, -596.23, 0.000, 0.000, 0.000, 13:14:51.251, 1559988891251
93, -578.75, -601.15, -850.42, -496.34, -711.55, -556.16, -660.40, -606.56, 0.000, 0.000, 0.000, 13:14:51.251, 1559988891251
94, -561.81, -583.74, -829.27, -486.73, -695.18, -543.68, -642.19, -588.72, 0.000, 0.000, 0.000, 13:14:51.251, 1559988891251
95, -545.14, -568.90, -805.33, -485.17, -684.79, -536.75, -629.78, -573.26, 0.000, 0.000, 0.000, 13:14:51.252, 1559988891252
96, -555.17, -579.40, -818.05, -491.54, -693.66, -544.26, -639.08, -584.52, 0.000, -0.024, 1.016, 13:14:51.252, 1559988891252
97, -566.93, -589.68, -833.47, -494.87, -701.31, -549.74, -649.97, -595.47, 0.000, 0.000, 0.000, 13:14:51.252, 1559988891252
98, -577.41, -601.55, -851.15, -497.46, -710.90, -557.27, -660.43, -607.83, 0.000, 0.000, 0.000, 13:14:51.252, 1559988891252
99, -561.68, -583.89, -829.12, -486.42, -696.55, -544.13, -647.19, -589.39, 0.000, 0.000, 0.000, 13:14:51.252, 1559988891252
100, -546.68, -570.06, -806.38, -486.06, -684.41, -537.05, -633.14, -574.91, 0.000, 0.000, 0.000, 13:14:51.252, 1559988891252
101, -555.04, -581.01, -819.88, -494.40, -694.09, -544.98, -640.20, -586.76, 0.000, 0.000, 0.000, 13:14:51.252, 1559988891252
102, -566.62, -590.11, -834.66, -496.39, -704.33, -550.93, -650.01, -596.81, 0.000, 0.000, 0.000, 13:14:51.252, 1559988891252
103, -578.73, -600.57, -851.33, -496.25, -711.12, -556.42, -659.69, -607.61, 0.000, 0.000, 0.000, 13:14:51.252, 1559988891252
104, -562.10, -584.19, -830.05, -485.57, -697.04, -543.75, -644.71, -589.30, 0.000, 0.000, 0.000, 13:14:51.252, 1559988891252
105, -544.94, -570.04, -806.41, -486.04, -685.95, -536.69, -632.22, -574.15, 0.000, 0.000, 0.000, 13:14:51.252, 1559988891252
106, -553.47, -579.27, -818.59, -492.32, -695.61, -543.97, -640.85, -584.79, 0.006, -0.026, 1.016, 13:14:51.252, 1559988891252
107, -566.21, -588.28, -833.21, -493.66, -702.11, -549.34, -648.74, -595.16, 0.000, 0.000, 0.000, 13:14:51.252, 1559988891252
108, -579.85, -600.57, -851.27, -496.32, -712.48, -556.09, -660.20, -607.23, 0.000, 0.000, 0.000, 13:14:51.252, 1559988891252
109, -565.21, -584.63, -830.23, -486.91, -698.13, -544.47, -643.98, -590.22, 0.000, 0.000, 0.000, 13:14:51.253, 1559988891253
110, -546.54, -570.28, -806.50, -486.20, -685.75, -537.02, -633.25, -574.53, 0.000, 0.000, 0.000, 13:14:51.253, 1559988891253
111, -553.30, -580.63, -819.86, -492.88, -696.10, -544.98, -643.37, -585.33, 0.000, 0.000, 0.000, 13:14:51.253, 1559988891253
112, -566.86, -590.67, -834.77, -496.21, -703.21, -551.31, -650.77, -596.21, 0.000, 0.000, 0.000, 13:14:51.253, 1559988891253
113, -579.33, -601.62, -851.18, -496.97, -711.61, -556.89, -661.90, -607.39, 0.000, 0.000, 0.000, 13:14:51.253, 1559988891253
114, -563.73, -584.39, -829.67, -485.10, -697.60, -543.73, -645.63, -589.30, 0.000, 0.000, 0.000, 13:14:51.253, 1559988891253
115, -547.51, -570.13, -806.14, -486.04, -686.58, -536.71, -632.35, -574.31, 0.000, 0.000, 0.000, 13:14:51.253, 1559988891253
116, -556.87, -581.08, -819.79, -493.71, -695.72, -545.63, -639.75, -585.79, 0.000, -0.024, 1.006, 13:14:51.253, 1559988891253
117, -568.96, -590.06, -833.99, -494.80, -704.55, -550.68, -649.97, -595.79, 0.000, 0.000, 0.000, 13:14:51.254, 1559988891254
118, -579.16, -600.77, -851.58, -496.19, -710.38, -556.71, -661.25, -607.21, 0.000, 0.000, 0.000, 13:14:51.254, 1559988891254
119, -561.86, -585.30, -831.86, -486.58, -695.79, -544.47, -647.84, -590.62, 0.000, 0.000, 0.000, 13:14:51.254, 1559988891254
120, -546.75, -570.08, -807.70, -486.69, -686.13, -537.18, -634.39, -575.24, 0.000, 0.000, 0.000, 13:14:51.681, 1559988891681
121, -557.27, -579.49, -818.81, -492.07, -695.45, -543.57, -641.18, -584.65, 0.000, 0.000, 0.000, 13:14:51.682, 1559988891682
122, -566.28, -590.24, -834.06, -494.67, -703.61, -550.21, -650.32, -595.52, 0.000, 0.000, 0.000, 13:14:51.682, 1559988891682
123, -578.35, -602.09, -852.54, -496.77, -712.28, -557.47, -660.90, -608.01, 0.000, 0.000, 0.000, 13:14:51.682, 1559988891682
124, -564.74, -585.35, -831.98, -486.02, -698.51, -544.51, -647.78, -590.80, 0.000, 0.000, 0.000, 13:14:51.682, 1559988891682
125, -548.76, -569.95, -807.10, -485.77, -685.24, -536.71, -633.20, -575.20, 0.000, 0.000, 0.000, 13:14:51.682, 1559988891682
126, -557.59, -580.39, -819.75, -492.72, -695.83, -544.87, -642.39, -585.64, 0.000, -0.022, 1.016, 13:14:51.682, 1559988891682
127, -569.43, -590.67, -835.37, -495.40, -706.02, -551.08, -652.18, -596.05, 0.000, 0.000, 0.000, 13:14:51.682, 1559988891682
128, -580.94, -601.64, -852.41, -496.79, -712.33, -557.27, -661.08, -607.70, 0.000, 0.000, 0.000, 13:14:51.683, 1559988891683
129, -565.39, -585.64, -832.54, -487.02, -699.48, -544.76, -647.69, -590.67, 0.000, 0.000, 0.000, 13:14:51.685, 1559988891685
130, -549.45, -570.95, -807.88, -485.61, -686.69, -537.54, -634.81, -574.86, 0.000, 0.000, 0.000, 13:14:51.685, 1559988891685
131, -556.20, -581.15, -820.20, -492.32, -695.12, -545.54, -642.88, -586.11, 0.000, 0.000, 0.000, 13:14:51.685, 1559988891685
132, -565.99, -590.06, -834.66, -493.86, -706.16, -551.22, -650.75, -595.72, 0.000, 0.000, 0.000, 13:14:51.685, 1559988891685
133, -579.83, -601.26, -852.54, -495.85, -714.05, -557.50, -661.19, -607.39, 0.000, 0.000, 0.000, 13:14:51.685, 1559988891685
134, -564.40, -586.29, -833.63, -487.04, -699.86, -545.61, -647.44, -591.52, 0.000, 0.000, 0.000, 13:14:51.685, 1559988891685
135, -545.87, -570.60, -807.72, -485.35, -686.58, -536.96, -635.06, -574.75, -0.002, -0.030, 1.016, 13:14:51.685, 1559988891685
136, -555.69, -579.98, -819.79, -492.61, -695.97, -544.73, -641.96, -586.33, 0.000, 0.000, 0.000, 13:14:51.685, 1559988891685
137, -566.37, -590.71, -835.55, -495.69, -704.86, -551.13, -651.87, -597.24, 0.000, 0.000, 0.000, 13:14:51.686, 1559988891686
138, -579.96, -602.47, -853.88, -497.71, -713.04, -558.41, -661.99, -608.79, 0.000, 0.000, 0.000, 13:14:51.686, 1559988891686
139, -565.41, -586.29, -833.68, -486.42, -699.45, -546.14, -646.68, -591.94, 0.000, 0.000, 0.000, 13:14:51.686, 1559988891686
140, -548.18, -571.15, -808.44, -485.57, -687.18, -538.14, -633.16, -575.87, 0.000, 0.000, 0.000, 13:14:51.686, 1559988891686
141, -555.24, -581.84, -821.45, -493.17, -694.69, -546.03, -644.09, -587.31, 0.000, 0.000, 0.000, 13:14:51.686, 1559988891686
142, -565.83, -591.54, -836.31, -494.51, -704.50, -551.84, -654.12, -597.22, 0.000, 0.000, 0.000, 13:14:51.686, 1559988891686
143, -580.77, -603.45, -854.40, -496.10, -714.09, -558.55, -661.34, -608.93, 0.000, 0.000, 0.000, 13:14:51.686, 1559988891686
144, -566.68, -586.89, -834.82, -486.46, -700.46, -546.23, -648.31, -592.10, 0.000, 0.000, 0.000, 13:14:51.686, 1559988891686
145, -545.96, -571.67, -809.40, -485.95, -685.91, -538.25, -633.92, -575.54, 0.002, -0.026, 1.014, 13:14:51.686, 1559988891686
146, -555.15, -582.87, -822.12, -494.11, -695.63, -546.77, -642.64, -587.65, 0.000, 0.000, 0.000, 13:14:51.686, 1559988891686
147, -568.18, -592.30, -836.78, -495.18, -705.02, -552.18, -651.58, -597.78, 0.000, 0.000, 0.000, 13:14:51.687, 1559988891687
148, -581.41, -603.43, -854.71, -496.77, -713.83, -558.50, -661.86, -610.38, 0.000, 0.000, 0.000, 13:14:51.687, 1559988891687
149, -566.77, -587.83, -836.00, -487.45, -699.86, -547.10, -647.28, -593.30, 0.000, 0.000, 0.000, 13:14:51.687, 1559988891687
150, -546.50, -572.27, -810.23, -485.75, -686.67, -538.70, -631.53, -575.69, 0.000, 0.000, 0.000, 13:14:51.687, 1559988891687
151, -555.89, -582.06, -821.96, -492.34, -695.12, -546.08, -641.63, -585.75, 0.000, 0.000, 0.000, 13:14:51.687, 1559988891687
152, -568.49, -591.92, -836.72, -494.89, -704.06, -551.95, -653.48, -596.70, 0.000, 0.000, 0.000, 13:14:51.687, 1559988891687
153, -581.39, -602.80, -853.90, -496.57, -712.31, -558.21, -663.04, -608.33, 0.000, 0.000, 0.000, 13:14:51.687, 1559988891687
154, -567.40, -587.60, -835.87, -487.02, -699.25, -546.88, -646.79, -592.90, 0.000, 0.000, 0.000, 13:14:51.687, 1559988891687
155, -548.67, -571.22, -809.62, -485.64, -688.95, -538.36, -632.20, -575.65, 0.000, -0.024, 1.010, 13:14:51.687, 1559988891687
156, -557.03, -581.53, -820.62, -491.92, -697.31, -545.58, -643.95, -586.15, 0.000, 0.000, 0.000, 13:14:51.687, 1559988891687
157, -569.30, -591.56, -836.00, -494.51, -704.62, -552.07, -654.37, -597.04, 0.000, 0.000, 0.000, 13:14:51.687, 1559988891687
158, -583.18, -603.50, -854.91, -497.53, -713.94, -559.22, -662.37, -609.73, 0.000, 0.000, 0.000, 13:14:51.687, 1559988891687
159, -567.89, -589.04, -836.80, -487.65, -701.38, -547.26, -649.70, -594.13, 0.000, 0.000, 0.000, 13:14:51.688, 1559988891688
160, -549.50, -572.52, -809.98, -485.23, -687.85, -537.78, -635.77, -576.43, 0.000, 0.000, 0.000, 13:14:51.688, 1559988891688
161, -559.37, -582.17, -821.90, -492.77, -695.72, -546.48, -643.51, -587.00, 0.000, 0.000, 0.000, 13:14:51.688, 1559988891688
162, -570.46, -592.14, -836.92, -495.29, -703.83, -552.51, -652.05, -597.60, 0.000, 0.000, 0.000, 13:14:51.688, 1559988891688
163, -581.84, -603.74, -855.04, -497.91, -713.94, -559.64, -663.87, -610.36, 0.000, 0.000, 0.000, 13:14:51.688, 1559988891688
164, -568.02, -588.86, -837.39, -489.26, -700.59, -547.77, -650.06, -594.67, 0.000, 0.000, 0.000, 13:14:51.688, 1559988891688
165, -549.47, -572.00, -810.27, -486.64, -687.16, -538.21, -634.07, -576.59, 0.004, -0.028, 1.012, 13:14:51.688, 1559988891688
166, -557.34, -582.87, -822.86, -494.55, -696.68, -546.81, -641.74, -587.85, 0.000, 0.000, 0.000, 13:14:51.688, 1559988891688
167, -570.10, -593.35, -838.01, -497.93, -706.02, -553.25, -651.69, -598.20, 0.000, 0.000, 0.000, 13:14:51.688, 1559988891688
168, -582.89, -603.07, -854.24, -497.13, -713.76, -558.48, -663.60, -608.62, 0.000, 0.000, 0.000, 13:14:51.688, 1559988891688
169, -569.57, -589.35, -837.79, -487.83, -701.87, -548.27, -650.75, -594.27, 0.000, 0.000, 0.000, 13:14:51.689, 1559988891689
170, -547.98, -572.05, -811.12, -485.84, -689.42, -538.95, -635.17, -576.47, 0.000, 0.000, 0.000, 13:14:51.689, 1559988891689
171, -557.77, -581.88, -822.68, -492.95, -698.31, -546.92, -644.13, -587.16, 0.000, 0.000, 0.000, 13:14:51.689, 1559988891689
172, -568.81, -592.25, -837.50, -495.45, -704.66, -552.96, -654.59, -597.98, 0.000, 0.000, 0.000, 13:14:51.689, 1559988891689
173, -581.30, -603.36, -854.46, -496.79, -713.67, -558.79, -664.00, -609.73, 0.000, 0.000, 0.000, 13:14:51.689, 1559988891689
174, -566.53, -590.02, -838.24, -488.14, -703.16, -548.22, -648.69, -595.43, 0.000, 0.000, 0.000, 13:14:51.689, 1559988891689
175, -548.53, -573.59, -811.39, -486.20, -689.15, -539.06, -633.56, -577.43, 0.002, -0.030, 1.016, 13:14:51.689, 1559988891689
176, -557.74, -582.55, -822.70, -493.33, -698.07, -546.66, -641.81, -587.58, 0.000, 0.000, 0.000, 13:14:51.689, 1559988891689
177, -568.96, -592.01, -837.56, -495.31, -704.28, -552.51, -652.58, -598.42, 0.000, 0.000, 0.000, 13:14:51.689, 1559988891689
178, -581.95, -603.92, -855.40, -496.61, -714.12, -558.66, -663.31, -610.14, 0.000, 0.000, 0.000, 13:14:51.689, 1559988891689
179, -570.28, -590.80, -839.29, -488.63, -703.50, -548.49, -651.42, -596.43, 0.000, 0.000, 0.000, 13:14:51.690, 1559988891690
180, -550.10, -573.05, -811.39, -485.30, -689.48, -538.88, -636.71, -576.88, 0.000, 0.000, 0.000, 13:14:51.690, 1559988891690
181, -558.06, -581.66, -822.14, -492.83, -697.53, -546.46, -644.15, -586.22, 0.000, 0.000, 0.000, 13:14:51.690, 1559988891690
182, -571.11, -591.58, -837.10, -495.45, -705.06, -552.80, -652.43, -597.55, 0.000, 0.000, 0.000, 13:14:51.690, 1559988891690
183, -583.51, -604.15, -855.33, -497.86, -712.86, -559.87, -663.89, -609.89, 0.000, 0.000, 0.000, 13:14:51.690, 1559988891690
184, -568.72, -590.60, -839.69, -489.21, -701.44, -549.00, -649.74, -595.79, 0.000, 0.000, 0.000, 13:14:51.690, 1559988891690
185, -551.08, -572.81, -812.26, -485.30, -688.63, -539.08, -633.87, -577.46, 0.008, -0.032, 1.022, 13:14:51.690, 1559988891690
186, -558.82, -583.13, -824.13, -493.37, -698.13, -548.00, -643.31, -588.34, 0.000, 0.000, 0.000, 13:14:51.690, 1559988891690
187, -569.05, -593.35, -839.38, -496.37, -704.93, -553.47, -655.08, -598.94, 0.000, 0.000, 0.000, 13:14:51.690, 1559988891690
188, -580.27, -604.41, -856.94, -498.69, -714.23, -560.36, -665.17, -610.31, 0.000, 0.000, 0.000, 13:14:51.690, 1559988891690
189, -568.56, -590.18, -839.96, -487.76, -702.49, -549.27, -650.93, -595.43, 0.000, 0.000, 0.000, 13:14:51.691, 1559988891691
190, -550.97, -571.62, -811.55, -485.17, -689.35, -538.63, -633.22, -576.65, 0.000, 0.000, 0.000, 13:14:51.691, 1559988891691
191, -558.12, -581.64, -822.70, -493.39, -695.68, -547.04, -642.77, -587.05, 0.000, 0.000, 0.000, 13:14:51.691, 1559988891691
192, -569.32, -592.50, -838.03, -495.49, -705.89, -553.32, -653.57, -597.84, 0.000, 0.000, 0.000, 13:14:51.691, 1559988891691
193, -582.80, -604.30, -856.54, -497.55, -715.75, -560.40, -664.83, -610.47, 0.000, 0.000, 0.000, 13:14:51.691, 1559988891691
194, -569.50, -591.23, -841.07, -488.10, -704.39, -549.79, -652.96, -597.33, 0.000, 0.000, 0.000, 13:14:51.691, 1559988891691
195, -551.06, -573.10, -812.91, -484.56, -688.25, -539.44, -635.37, -578.02, 0.010, -0.024, 1.024, 13:14:51.691, 1559988891691
196, -557.81, -581.99, -823.19, -492.16, -696.19, -547.17, -642.10, -587.45, 0.000, 0.000, 0.000, 13:14:51.691, 1559988891691
197, -568.34, -592.16, -837.81, -495.94, -705.31, -553.34, -653.59, -598.13, 0.000, 0.000, 0.000, 13:14:51.691, 1559988891691
198, -582.35, -602.87, -855.38, -496.83, -714.79, -559.37, -664.90, -609.69, 0.000, 0.000, 0.000, 13:14:51.691, 1559988891691
199, -571.11, -590.18, -840.00, -487.72, -704.82, -548.80, -652.76, -596.05, 0.000, 0.000, 0.000, 13:14:51.691, 1559988891691
200, -551.33, -573.03, -812.75, -485.95, -689.37, -539.91, -638.34, -577.84, 0.000, 0.000, 0.000, 13:14:51.691, 1559988891691
201, -560.07, -583.02, -823.53, -494.00, -693.73, -548.22, -643.75, -588.10, 0.000, 0.000, 0.000, 13:14:51.692, 1559988891692
202, -570.53, -592.23, -837.92, -495.36, -703.63, -553.21, -652.92, -597.44, 0.000, 0.000, 0.000, 13:14:51.692, 1559988891692
203, -582.75, -604.28, -856.94, -497.77, -715.08, -560.22, -664.23, -610.18, 0.000, 0.000, 0.000, 13:14:51.692, 1559988891692
204, -569.68, -592.41, -842.41, -488.27, -704.80, -551.13, -653.61, -597.75, 0.000, 0.000, 0.000, 13:14:51.692, 1559988891692
205, -550.90, -574.31, -813.96, -485.19, -690.65, -540.82, -635.68, -578.73, 0.006, -0.028, 1.022, 13:14:51.693, 1559988891693
206, -559.55, -582.78, -823.35, -492.90, -696.97, -547.37, -643.75, -587.16, 0.000, 0.000, 0.000, 13:14:51.693, 1559988891693
207, -570.64, -593.19, -838.75, -495.47, -705.11, -553.81, -654.37, -598.40, 0.000, 0.000, 0.000, 13:14:51.693, 1559988891693
208, -583.29, -605.46, -857.44, -497.64, -714.56, -560.47, -666.69, -611.97, 0.000, 0.000, 0.000, 13:14:51.693, 1559988891693
209, -571.15, -592.54, -842.97, -488.70, -704.77, -550.72, -655.78, -598.98, 0.000, 0.000, 0.000, 13:14:51.694, 1559988891694
210, -553.47, -573.37, -814.07, -485.95, -690.65, -540.26, -637.99, -578.53, 0.000, 0.000, 0.000, 13:14:51.694, 1559988891694
211, -560.67, -582.29, -824.04, -492.88, -695.88, -547.10, -642.88, -588.21, 0.000, 0.000, 0.000, 13:14:51.694, 1559988891694
212, -572.45, -592.86, -838.93, -494.98, -703.21, -553.30, -653.59, -598.96, 0.000, 0.000, 0.000, 13:14:51.694, 1559988891694
213, -584.36, -606.98, -858.24, -498.20, -713.56, -561.72, -664.63, -612.68, 0.000, 0.000, 0.000, 13:14:51.694, 1559988891694
214, -572.36, -593.57, -843.42, -488.99, -703.95, -551.46, -652.65, -598.89, 0.000, 0.000, 0.000, 13:14:51.694, 1559988891694
215, -550.08, -573.68, -814.18, -485.50, -688.79, -540.33, -637.49, -578.66, 0.002, -0.030, 1.022, 13:14:51.694, 1559988891694
216, -558.88, -583.60, -825.07, -493.97, -697.69, -549.09, -645.21, -589.10, 0.000, 0.000, 0.000, 13:14:51.694, 1559988891694
217, -570.10, -593.19, -839.35, -495.67, -705.85, -554.39, -653.36, -599.09, 0.000, 0.000, 0.000, 13:14:51.694, 1559988891694
218, -582.64, -605.93, -858.53, -498.67, -714.05, -561.95, -664.36, -612.46, 0.000, 0.000, 0.000, 13:14:51.694, 1559988891694
219, -572.56, -593.68, -844.49, -488.74, -705.02, -552.18, -654.03, -599.59, 0.000, 0.000, 0.000, 13:14:51.695, 1559988891695
220, -551.73, -574.26, -814.18, -484.54, -691.61, -540.80, -635.62, -578.91, 0.000, 0.000, 0.000, 13:14:51.695, 1559988891695
221, -561.57, -583.85, -824.53, -492.97, -699.54, -548.96, -645.09, -589.01, 0.000, 0.000, 0.000, 13:14:51.695, 1559988891695
222, -571.91, -594.56, -839.55, -496.48, -706.67, -554.97, -654.26, -599.94, 0.000, 0.000, 0.000, 13:14:51.695, 1559988891695
223, -582.58, -605.93, -857.32, -497.01, -715.05, -560.94, -665.88, -611.79, 0.000, 0.000, 0.000, 13:14:51.695, 1559988891695
224, -572.58, -592.81, -843.29, -487.25, -704.21, -550.90, -654.97, -598.67, 0.000, 0.000, 0.000, 13:14:51.695, 1559988891695
225, -553.79, -574.24, -814.88, -485.41, -692.43, -541.16, -636.02, -579.74, -0.002, -0.026, 1.026, 13:14:51.695, 1559988891695
226, -560.56, -583.20, -824.58, -493.01, -699.10, -548.98, -643.89, -588.92, 0.000, 0.000, 0.000, 13:14:51.695, 1559988891695
227, -571.80, -593.60, -839.84, -495.74, -706.11, -555.31, -653.72, -599.45, 0.000, 0.000, 0.000, 13:14:51.695, 1559988891695
228, -584.14, -606.87, -859.13, -497.59, -715.64, -563.11, -665.39, -612.68, 0.000, 0.000, 0.000, 13:14:51.695, 1559988891695
229, -573.99, -596.08, -846.04, -488.94, -706.40, -553.38, -655.08, -600.46, 0.000, 0.000, 0.000, 13:14:51.695, 1559988891695
230, -553.30, -576.16, -816.04, -485.41, -689.60, -542.10, -637.05, -579.83, 0.000, 0.000, 0.000, 13:14:51.696, 1559988891696
231, -560.38, -582.87, -824.35, -492.16, -698.02, -548.22, -644.87, -588.01, 0.000, 0.000, 0.000, 13:14:51.696, 1559988891696
232, -572.70, -592.92, -839.24, -494.80, -706.70, -554.12, -654.88, -598.13, 0.000, 0.000, 0.000, 13:14:51.696, 1559988891696
233, -584.54, -606.47, -858.66, -497.39, -716.55, -562.28, -665.88, -612.12, 0.000, 0.000, 0.000, 13:14:51.696, 1559988891696
234, -572.74, -595.36, -845.92, -488.85, -705.00, -552.56, -655.02, -600.86, 0.000, 0.000, 0.000, 13:14:51.696, 1559988891696
235, -554.35, -575.60, -816.29, -485.84, -690.53, -541.38, -638.57, -580.18, 0.004, -0.026, 1.024, 13:14:51.696, 1559988891696
236, -561.74, -583.65, -825.27, -493.68, -699.61, -548.65, -646.28, -588.30, 0.000, 0.000, 0.000, 13:14:51.696, 1559988891696
237, -573.14, -593.98, -840.02, -495.90, -704.91, -554.99, -654.35, -598.91, 0.000, 0.000, 0.000, 13:14:51.697, 1559988891697
238, -585.28, -606.22, -858.69, -497.59, -714.21, -562.12, -665.43, -612.17, 0.000, 0.000, 0.000, 13:14:51.697, 1559988891697
239, -575.56, -595.09, -846.39, -489.59, -706.29, -552.78, -655.04, -600.61, 0.000, 0.000, 0.000, 13:14:51.697, 1559988891697
240, -552.65, -574.78, -816.00, -485.01, -691.85, -541.72, -638.59, -579.80, 0.000, 0.000, 0.000, 13:14:52.165, 1559988892165
241, -558.66, -582.51, -824.58, -491.94, -698.58, -548.62, -647.55, -588.12, 0.000, 0.000, 0.000, 13:14:52.165, 1559988892165
242, -571.69, -592.86, -839.11, -494.58, -705.02, -554.10, -655.82, -599.07, 0.000, 0.000, 0.000, 13:14:52.166, 1559988892166
243, -585.19, -604.70, -857.59, -496.86, -715.55, -560.29, -664.45, -611.43, 0.000, 0.000, 0.000, 13:14:52.166, 1559988892166
244, -575.16, -594.98, -846.53, -490.33, -707.34, -552.69, -655.31, -601.13, 0.000, 0.000, 0.000, 13:14:52.166, 1559988892166
245, -553.07, -575.74, -816.35, -485.77, -691.38, -541.78, -640.87, -580.50, 0.004, -0.030, 1.018, 13:14:52.167, 1559988892167
246, -560.38, -583.98, -825.34, -493.01, -697.58, -549.05, -645.67, -589.64, 0.000, 0.000, 0.000, 13:14:52.167, 1559988892167
247, -569.25, -593.37, -840.22, -495.56, -705.00, -555.69, -655.69, -600.28, 0.000, 0.000, 0.000, 13:14:52.167, 1559988892167
248, -582.20, -605.64, -858.58, -497.71, -716.95, -562.28, -666.71, -612.55, 0.000, 0.000, 0.000, 13:14:52.167, 1559988892167
249, -575.11, -594.87, -846.21, -489.03, -707.48, -552.31, -658.95, -601.31, 0.000, 0.000, 0.000, 13:14:52.168, 1559988892168
250, -552.98, -576.05, -817.45, -486.66, -688.46, -542.45, -642.10, -581.64, 0.000, 0.000, 0.000, 13:14:52.168, 1559988892168
251, -560.63, -583.96, -826.25, -493.44, -695.74, -549.61, -646.90, -589.17, 0.000, 0.000, 0.000, 13:14:52.168, 1559988892168
252, -571.33, -593.86, -840.69, -496.01, -705.51, -555.40, -654.03, -599.25, 0.000, 0.000, 0.000, 13:14:52.169, 1559988892169
253, -584.43, -605.98, -859.29, -498.15, -716.44, -561.86, -664.18, -612.48, 0.000, 0.000, 0.000, 13:14:52.169, 1559988892169
254, -574.48, -595.03, -847.29, -489.88, -707.99, -552.58, -656.76, -601.13, 0.006, -0.028, 1.022, 13:14:52.169, 1559988892169
255, -553.21, -575.24, -816.35, -485.41, -693.40, -540.89, -639.28, -579.65, 0.000, 0.000, 0.000, 13:14:52.169, 1559988892169
0, -560.78, -582.96, -824.49, -492.05, -701.15, -548.18, -645.88, -588.43, 0.000, 0.000, 0.000, 13:14:52.170, 1559988892170
1, -570.98, -592.99, -839.89, -495.56, -707.48, -553.85, -656.05, -599.29, 0.000, 0.000, 0.000, 13:14:52.170, 1559988892170
2, -586.87, -605.75, -859.00, -498.24, -715.88, -561.25, -665.95, -611.88, 0.000, 0.000, 0.000, 13:14:52.170, 1559988892170
3, -576.99, -596.17, -848.36, -489.61, -707.12, -553.18, -658.53, -602.20, 0.000, 0.000, 0.000, 13:14:52.170, 1559988892170
4, -554.90, -576.18, -817.40, -485.46, -691.41, -541.45, -639.06, -580.85, 0.000, 0.000, 0.000, 13:14:52.170, 1559988892170
5, -563.64, -584.43, -826.61, -493.55, -699.18, -549.23, -646.26, -589.19, 0.000, 0.000, 0.000, 13:14:52.171, 1559988892171
6, -572.70, -593.68, -841.39, -495.18, -707.37, -555.49, -655.58, -599.27, 0.000, 0.000, 0.000, 13:14:52.171, 1559988892171
7, -586.29, -606.11, -859.94, -498.35, -716.46, -562.97, -667.13, -613.04, 0.000, 0.000, 0.000, 13:14:52.171, 1559988892171
8, -577.05, -596.32, -848.85, -489.37, -709.18, -553.76, -659.62, -602.92, 0.012, -0.024, 1.020, 13:14:52.171, 1559988892171
9, -554.46, -575.83, -817.22, -484.74, -691.16, -541.18, -640.53, -580.25, 0.000, 0.000, 0.000, 13:14:52.171, 1559988892171
10, -562.30, -583.31, -824.62, -492.68, -700.50, -548.42, -644.53, -588.23, 0.000, 0.000, 0.000, 13:14:52.172, 1559988892172
11, -573.34, -593.82, -840.89, -496.45, -707.41, -555.33, -655.26, -600.32, 0.000, 0.000, 0.000, 13:14:52.172, 1559988892172
12, -585.84, -605.29, -858.89, -498.15, -715.97, -561.81, -668.18, -611.97, 0.000, 0.000, 0.000, 13:14:52.172, 1559988892172
13, -577.57, -595.76, -848.05, -489.48, -707.63, -554.26, -658.53, -601.75, 0.000, 0.000, 0.000, 13:14:52.172, 1559988892172
14, -555.08, -575.09, -817.22, -484.90, -692.26, -541.45, -638.21, -580.25, 0.000, 0.000, 0.000, 13:14:52.173, 1559988892173
15, -559.29, -583.43, -825.65, -491.94, -699.50, -548.94, -644.80, -588.50, 0.000, 0.000, 0.000, 13:14:52.173, 1559988892173
16, -571.36, -594.87, -841.30, -495.11, -706.54, -555.53, -654.50, -599.38, 0.000, 0.000, 0.000, 13:14:52.173, 1559988892173
17, -585.77, -607.39, -860.72, -499.16, -718.09, -563.09, -665.32, -613.13, 0.000, 0.000, 0.000, 13:14:52.173, 1559988892173
18, -577.55, -596.95, -850.42, -490.49, -708.68, -554.37, -658.68, -603.52, 0.008, -0.022, 1.014, 13:14:52.174, 1559988892174
19, -555.73, -576.54, -818.45, -484.32, -694.18, -542.16, -637.74, -581.35, 0.000, 0.000, 0.000, 13:14:52.174, 1559988892174
20, -563.85, -584.30, -826.14, -492.54, -700.88, -549.29, -647.02, -589.35, 0.000, 0.000, 0.000, 13:14:52.174, 1559988892174
21, -573.93, -594.65, -841.36, -495.92, -707.61, -556.40, -655.89, -600.17, 0.000, 0.000, 0.000, 13:14:52.174, 1559988892174
22, -585.30, -606.74, -859.87, -497.95, -715.77, -563.26, -665.99, -612.21, 0.000, 0.000, 0.000, 13:14:52.174, 1559988892174
23, -577.70, -598.96, -851.20, -490.64, -707.86, -555.98, -658.08, -603.25, 0.000, 0.000, 0.000, 13:14:52.175, 1559988892175
24, -555.60, -576.81, -819.21, -485.30, -690.65, -542.75, -639.51, -581.23, 0.000, 0.000, 0.000, 13:14:52.175, 1559988892175
25, -562.37, -582.75, -825.65, -492.10, -698.31, -548.38, -647.95, -588.34, 0.000, 0.000, 0.000, 13:14:52.175, 1559988892175
26, -571.67, -593.64, -840.69, -495.20, -707.30, -554.55, -655.98, -599.29, 0.000, 0.000, 0.000, 13:14:52.176, 1559988892176
27, -585.86, -606.81, -859.63, -497.33, -717.51, -562.08, -666.66, -612.77, 0.000, 0.000, 0.000, 13:14:52.176, 1559988892176
28, -577.99, -597.91, -850.31, -489.35, -710.34, -555.13, -659.20, -602.96, 0.004, -0.022, 1.022, 13:14:52.177, 1559988892177
29, -556.16, -577.14, -819.12, -484.41, -694.51, -543.08, -641.29, -581.50, 0.000, 0.000, 0.000, 13:14:52.177, 1559988892177
30, -562.62, -585.03, -826.72, -491.76, -701.71, -550.41, -647.17, -589.68, 0.000, 0.000, 0.000, 13:14:52.178, 1559988892178
31, -572.41, -594.02, -841.48, -494.51, -708.30, -555.60, -656.07, -600.05, 0.000, 0.000, 0.000, 13:14:52.178, 1559988892178
32, -585.15, -606.27, -860.14, -497.64, -717.87, -562.57, -667.18, -613.31, 0.000, 0.000, 0.000, 13:14:52.179, 1559988892179
33, -578.08, -598.42, -851.24, -490.33, -710.36, -555.66, -659.06, -604.01, 0.000, 0.000, 0.000, 13:14:52.180, 1559988892180
34, -557.16, -576.29, -818.97, -484.83, -693.84, -542.07, -639.84, -580.50, 0.000, 0.000, 0.000, 13:14:52.180, 1559988892180
35, -562.08, -582.69, -825.96, -492.16, -702.05, -548.67, -647.08, -588.32, 0.000, 0.000, 0.000, 13:14:52.181, 1559988892181
36, -573.39, -593.80, -842.10, -496.28, -708.55, -556.09, -657.45, -600.55, 0.000, 0.000, 0.000, 13:14:52.182, 1559988892182
37, -585.77, -606.89, -860.59, -497.48, -716.19, -562.91, -666.77, -613.58, 0.000, 0.000, 0.000, 13:14:52.182, 1559988892182
38, -578.24, -598.62, -851.69, -490.04, -708.48, -554.82, -659.06, -604.39, 0.004, -0.024, 1.026, 13:14:52.182, 1559988892182
39, -555.71, -577.64, -820.58, -485.84, -690.87, -542.95, -641.41, -582.37, 0.000, 0.000, 0.000, 13:14:52.182, 1559988892182
40, -563.22, -584.72, -827.17, -492.83, -699.18, -550.19, -646.84, -589.66, 0.000, 0.000, 0.000, 13:14:52.183, 1559988892183
41, -573.52, -593.93, -841.36, -494.06, -707.46, -554.93, -656.18, -599.56, 0.000, 0.000, 0.000, 13:14:52.183, 1559988892183
42, -586.89, -607.10, -860.25, -497.68, -716.75, -562.55, -668.36, -612.59, 0.000, 0.000, 0.000, 13:14:52.184, 1559988892184
43, -578.84, -599.67, -852.50, -491.27, -710.20, -556.42, -659.91, -605.17, 0.000, 0.000, 0.000, 13:14:52.185, 1559988892185
44, -556.98, -577.35, -820.35, -485.86, -692.59, -542.99, -640.74, -582.26, 0.000, 0.000, 0.000, 13:14:52.185, 1559988892185
45, -563.60, -583.63, -826.23, -492.50, -699.88, -548.76, -646.01, -588.70, 0.000, 0.000, 0.000, 13:14:52.186, 1559988892186
46, -575.65, -594.36, -841.23, -494.33, -708.95, -555.89, -656.22, -599.79, 0.000, 0.000, 0.000, 13:14:52.186, 1559988892186
47, -586.80, -607.05, -860.56, -498.09, -717.69, -563.09, -668.54, -612.82, 0.000, 0.000, 0.000, 13:14:52.186, 1559988892186
48, -578.60, -598.27, -852.61, -490.55, -710.74, -555.19, -662.53, -604.32, 0.002, -0.022, 1.028, 13:14:52.187, 1559988892187
49, -557.07, -576.85, -821.25, -485.52, -693.82, -543.46, -643.31, -582.69, 0.000, 0.000, 0.000, 13:14:52.187, 1559988892187
50, -564.34, -583.36, -827.35, -493.03, -700.03, -549.99, -646.88, -589.82, 0.000, 0.000, 0.000, 13:14:52.187, 1559988892187
51, -573.26, -594.11, -842.37, -496.14, -709.71, -555.71, -657.68, -600.77, 0.000, 0.000, 0.000, 13:14:52.187, 1559988892187
52, -587.67, -607.01, -860.97, -498.65, -715.52, -563.24, -666.57, -614.02, 0.000, 0.000, 0.000, 13:14:52.187, 1559988892187
53, -581.08, -599.76, -853.39, -490.89, -708.48, -556.40, -659.35, -606.05, 0.000, 0.000, 0.000, 13:14:52.187, 1559988892187
54, -557.94, -577.73, -821.02, -484.16, -694.09, -543.19, -640.51, -582.80, 0.000, 0.000, 0.000, 13:14:52.187, 1559988892187
55, -562.62, -584.25, -827.33, -491.67, -702.45, -550.17, -647.46, -590.06, 0.000, 0.000, 0.000, 13:14:52.188, 1559988892188
56, -573.37, -593.84, -842.01, -495.61, -710.87, -556.49, -656.20, -600.68, 0.000, 0.000, 0.000, 13:14:52.188, 1559988892188
57, -585.93, -606.47, -861.68, -499.34, -718.59, -563.93, -667.76, -614.23, 0.000, 0.000, 0.000, 13:14:52.188, 1559988892188
58, -580.90, -599.23, -854.42, -491.43, -709.29, -557.09, -661.30, -605.93, 0.006, -0.018, 1.026, 13:14:52.188, 1559988892188
59, -557.65, -578.17, -822.30, -485.50, -692.66, -544.42, -641.36, -583.22, 0.000, 0.000, 0.000, 13:14:52.188, 1559988892188
60, -563.96, -584.83, -828.00, -492.72, -698.27, -550.46, -647.57, -590.62, 0.000, 0.000, 0.000, 13:14:52.188, 1559988892188
61, -574.75, -594.82, -842.50, -494.62, -706.81, -556.40, -655.15, -601.49, 0.000, 0.000, 0.000, 13:14:52.188, 1559988892188
62, -588.50, -607.52, -861.68, -498.71, -718.03, -563.60, -667.22, -614.61, 0.000, 0.000, 0.000, 13:14:52.188, 1559988892188
63, -579.89, -600.75, -855.36, -492.10, -711.59, -557.54, -661.32, -607.21, 0.000, 0.000, 0.000, 13:14:52.188, 1559988892188
64, -555.66, -578.49, -822.61, -485.61, -694.33, -544.91, -641.63, -584.07, 0.000, 0.000, 0.000, 13:14:52.189, 1559988892189
65, -562.33, -584.07, -827.26, -491.85, -700.46, -550.50, -648.65, -589.68, 0.000, 0.000, 0.000, 13:14:52.189, 1559988892189
66, -572.92, -594.82, -842.93, -495.18, -707.23, -557.72, -657.97, -601.71, 0.000, 0.000, 0.000, 13:14:52.189, 1559988892189
67, -585.55, -606.89, -861.12, -498.02, -717.96, -564.29, -667.00, -613.82, 0.000, 0.000, 0.000, 13:14:52.189, 1559988892189
68, -580.41, -599.83, -854.10, -490.98, -711.95, -556.96, -659.98, -605.49, 0.006, -0.024, 1.026, 13:14:52.189, 1559988892189
69, -557.27, -578.87, -822.45, -484.79, -694.89, -544.73, -640.62, -583.92, 0.000, 0.000, 0.000, 13:14:52.189, 1559988892189
70, -563.17, -584.92, -828.22, -492.77, -700.32, -551.19, -647.31, -591.43, 0.000, 0.000, 0.000, 13:14:52.189, 1559988892189
71, -574.69, -595.32, -843.73, -496.12, -708.77, -557.61, -659.02, -602.51, 0.000, 0.000, 0.000, 13:14:52.189, 1559988892189
72, -586.91, -607.65, -862.22, -499.43, -720.44, -564.56, -667.78, -614.58, 0.000, 0.000, 0.000, 13:14:52.190, 1559988892190
73, -581.57, -600.50, -855.76, -491.78, -713.00, -557.79, -661.54, -607.36, 0.000, 0.000, 0.000, 13:14:52.190, 1559988892190
74, -559.37, -579.80, -824.69, -485.46, -694.60, -545.74, -641.61, -585.33, 0.000, 0.000, 0.000, 13:14:52.190, 1559988892190
75, -563.31, -585.24, -828.31, -491.43, -702.02, -550.88, -647.26, -589.88, 0.000, 0.000, 0.000, 13:14:52.190, 1559988892190
76, -575.60, -595.58, -843.15, -495.40, -710.20, -557.27, -656.63, -600.30, 0.000, 0.000, 0.000, 13:14:52.190, 1559988892190
77, -589.10, -608.37, -862.04, -498.22, -717.76, -564.20, -668.29, -613.76, 0.000, 0.000, 0.000, 13:14:52.190, 1559988892190
78, -581.15, -601.28, -856.05, -490.31, -712.89, -557.83, -662.71, -606.49, -0.002, -0.024, 1.028, 13:14:52.191, 1559988892191
79, -558.88, -578.93, -823.82, -484.61, -694.00, -545.09, -643.53, -584.21, 0.000, 0.000, 0.000, 13:14:52.191, 1559988892191
80, -564.23, -586.09, -829.67, -492.34, -699.21, -551.84, -650.23, -591.16, 0.000, 0.000, 0.000, 13:14:52.191, 1559988892191
81, -576.05, -596.86, -845.03, -495.87, -707.57, -558.10, -657.43, -602.02, 0.000, 0.000, 0.000, 13:14:52.191, 1559988892191
82, -587.27, -607.43, -862.46, -498.51, -717.47, -564.31, -668.76, -613.98, 0.000, 0.000, 0.000, 13:14:52.193, 1559988892193
83, -581.95, -600.46, -856.14, -490.71, -711.95, -557.14, -662.77, -607.16, 0.000, 0.000, 0.000, 13:14:52.194, 1559988892194
84, -559.37, -579.63, -824.18, -484.97, -694.58, -545.11, -642.34, -584.74, 0.000, 0.000, 0.000, 13:14:52.194, 1559988892194
85, -563.40, -584.81, -827.82, -491.76, -701.91, -550.41, -645.56, -589.80, 0.000, 0.000, 0.000, 13:14:52.195, 1559988892195
86, -573.93, -594.65, -842.44, -493.21, -709.67, -556.16, -655.17, -600.52, 0.000, 0.000, 0.000, 13:14:52.195, 1559988892195
87, -588.88, -607.19, -861.68, -496.90, -720.51, -563.80, -668.70, -613.69, 0.000, 0.000, 0.000, 13:14:52.195, 1559988892195
88, -584.12, -602.74, -858.17, -491.83, -715.28, -559.37, -663.49, -609.20, 0.000, -0.026, 1.024, 13:14:52.195, 1559988892195
89, -560.56, -580.52, -825.18, -484.21, -695.05, -545.54, -642.66, -585.53, 0.000, 0.000, 0.000, 13:14:52.195, 1559988892195
90, -561.34, -585.37, -828.56, -491.58, -699.50, -550.81, -648.42, -590.91, 0.000, 0.000, 0.000, 13:14:52.195, 1559988892195
91, -572.45, -594.71, -843.31, -494.69, -708.35, -556.92, -659.42, -600.59, 0.000, 0.000, 0.000, 13:14:52.195, 1559988892195
92, -587.11, -608.64, -862.60, -498.29, -718.32, -563.93, -668.63, -613.60, 0.000, 0.000, 0.000, 13:14:52.196, 1559988892196
93, -582.46, -603.03, -858.28, -492.07, -713.15, -558.88, -663.38, -608.39, 0.000, 0.000, 0.000, 13:14:52.196, 1559988892196
94, -561.12, -580.61, -826.03, -485.99, -692.70, -545.99, -644.60, -585.73, 0.000, 0.000, 0.000, 13:14:52.196, 1559988892196
95, -563.58, -585.06, -828.67, -491.94, -698.87, -550.75, -648.33, -589.71, 0.000, 0.000, 0.000, 13:14:52.196, 1559988892196
96, -573.39, -594.49, -843.20, -494.73, -709.38, -556.65, -656.40, -600.48, 0.000, 0.000, 0.000, 13:14:52.196, 1559988892196
97, -588.30, -607.48, -862.42, -497.75, -720.46, -564.99, -668.29, -614.38, 0.000, 0.000, 0.000, 13:14:52.196, 1559988892196
98, -583.34, -603.18, -858.28, -491.11, -714.52, -558.86, -666.15, -609.33, 0.006, -0.022, 1.018, 13:14:52.196, 1559988892196
99, -560.67, -580.27, -825.09, -484.45, -696.68, -544.76, -644.09, -585.55, 0.000, 0.000, 0.000, 13:14:52.196, 1559988892196
100, -563.29, -585.53, -829.29, -491.69, -701.20, -551.35, -647.93, -590.89, 0.000, 0.000, 0.000, 13:14:52.197, 1559988892197
101, -574.75, -596.21, -844.29, -496.14, -709.76, -557.16, -655.46, -601.69, 0.000, 0.000, 0.000, 13:14:52.197, 1559988892197
102, -587.87, -608.28, -862.71, -498.65, -718.36, -564.38, -666.84, -614.25, 0.000, 0.000, 0.000, 13:14:52.197, 1559988892197
103, -585.15, -602.63, -857.88, -489.73, -712.60, -558.82, -662.64, -608.26, 0.000, 0.000, 0.000, 13:14:52.197, 1559988892197
104, -562.64, -580.18, -825.16, -483.74, -694.02, -545.16, -643.37, -584.97, 0.000, 0.000, 0.000, 13:14:52.644, 1559988892644
105, -564.25, -584.97, -829.52, -492.57, -700.50, -551.57, -647.28, -590.06, 0.000, 0.000, 0.000, 13:14:52.644, 1559988892644
106, -575.49, -595.05, -844.34, -495.36, -710.07, -557.74, -657.01, -600.81, 0.000, 0.000, 0.000, 13:14:52.645, 1559988892645
107, -588.21, -607.79, -862.80, -499.43, -719.12, -564.74, -666.80, -614.47, 0.000, 0.000, 0.000, 13:14:52.646, 1559988892646
108, -582.42, -603.36, -859.02, -492.68, -715.50, -559.29, -664.38, -609.17, 0.002, -0.028, 1.018, 13:14:52.646, 1559988892646
109, -559.60, -581.30, -825.94, -484.94, -696.41, -544.98, -643.77, -585.48, 0.000, 0.000, 0.000, 13:14:52.647, 1559988892647
110, -564.05, -585.73, -829.23, -492.79, -701.67, -550.84, -649.41, -591.02, 0.000, 0.000, 0.000, 13:14:52.647, 1559988892647
111, -576.52, -595.96, -844.38, -496.07, -709.11, -557.77, -657.79, -602.20, 0.000, 0.000, 0.000, 13:14:52.647, 1559988892647
112, -589.86, -608.01, -862.42, -497.28, -718.74, -564.29, -668.29, -613.89, 0.000, 0.000, 0.000, 13:14:52.647, 1559988892647
113, -584.63, -604.23, -860.03, -492.41, -713.83, -560.34, -667.07, -610.20, 0.000, 0.000, 0.000, 13:14:52.647, 1559988892647
114, -561.27, -580.34, -826.59, -485.73, -696.03, -546.21, -645.38, -586.06, 0.000, 0.000, 0.000, 13:14:52.647, 1559988892647
115, -566.33, -585.10, -829.52, -492.63, -699.63, -551.64, -648.07, -591.11, 0.000, 0.000, 0.000, 13:14:52.647, 1559988892647
116, -576.05, -596.52, -845.88, -496.37, -709.58, -559.06, -654.26, -603.41, 0.000, 0.000, 0.000, 13:14:52.647, 1559988892647
117, -588.01, -609.91, -864.77, -499.67, -719.90, -566.77, -665.72, -616.39, 0.006, -0.026, 1.018, 13:14:52.647, 1559988892647
118, -586.29, -605.60, -861.15, -493.33, -715.28, -560.94, -663.53, -611.07, 0.000, 0.000, 0.000, 13:14:52.648, 1559988892648
119, -563.15, -581.86, -827.06, -485.79, -694.45, -545.94, -644.24, -586.49, 0.000, 0.000, 0.000, 13:14:52.648, 1559988892648
120, -564.58, -585.88, -829.45, -491.78, -699.50, -550.66, -647.93, -590.35, 0.000, 0.000, 0.000, 13:14:52.648, 1559988892648
121, -575.98, -596.84, -844.65, -495.14, -709.40, -557.25, -659.33, -601.62, 0.000, 0.000, 0.000, 13:14:52.648, 1559988892648
122, -588.90, -609.04, -863.58, -498.78, -721.16, -565.77, -668.67, -615.34, 0.000, 0.000, 0.000, 13:14:52.648, 1559988892648
123, -584.88, -604.59, -860.97, -492.12, -715.19, -560.72, -665.12, -610.34, 0.000, 0.000, 0.000, 13:14:52.648, 1559988892648
124, -561.25, -581.93, -827.69, -485.86, -695.27, -546.19, -643.71, -586.53, 0.000, 0.000, 0.000, 13:14:52.650, 1559988892650
125, -564.67, -585.59, -829.36, -491.89, -700.73, -550.90, -647.44, -590.44, 0.000, 0.000, 0.000, 13:14:52.650, 1559988892650
126, -575.89, -595.83, -844.85, -495.02, -710.67, -557.81, -658.39, -602.38, 0.000, 0.000, 0.000, 13:14:52.650, 1559988892650
127, -588.66, -609.33, -864.50, -498.73, -719.97, -566.53, -670.69, -615.92, 0.004, -0.026, 1.016, 13:14:52.650, 1559988892650
128, -586.71, -604.75, -861.53, -492.59, -716.46, -561.39, -666.84, -611.12, 0.000, 0.000, 0.000, 13:14:52.650, 1559988892650
129, -563.02, -581.75, -827.62, -485.30, -697.15, -546.52, -645.61, -586.71, 0.000, 0.000, 0.000, 13:14:52.650, 1559988892650
130, -565.66, -587.31, -830.75, -493.55, -699.83, -552.62, -648.42, -591.65, 0.000, 0.000, 0.000, 13:14:52.650, 1559988892650
131, -576.16, -596.37, -845.10, -496.48, -708.39, -558.28, -658.39, -602.54, 0.000, 0.000, 0.000, 13:14:52.650, 1559988892650
132, -588.30, -608.06, -863.22, -498.94, -720.46, -565.34, -669.68, -615.19, 0.000, 0.000, 0.000, 13:14:52.651, 1559988892651
133, -587.67, -605.17, -862.02, -492.92, -714.94, -561.21, -665.01, -611.59, 0.000, 0.000, 0.000, 13:14:52.652, 1559988892652
134, -564.69, -583.40, -829.67, -486.35, -695.52, -548.44, -645.12, -588.21, 0.000, 0.000, 0.000, 13:14:52.652, 1559988892652
135, -566.37, -586.40, -830.03, -492.43, -700.17, -552.62, -649.45, -591.27, 0.000, 0.000, 0.000, 13:14:52.652, 1559988892652
136, -576.52, -596.12, -845.05, -496.03, -709.00, -558.39, -659.02, -602.07, 0.000, 0.000, 0.000, 13:14:52.652, 1559988892652
137, -590.02, -609.26, -864.32, -498.89, -720.42, -566.37, -669.32, -614.96, 0.002, -0.028, 1.020, 13:14:52.652, 1559988892652
138, -587.74, -607.27, -863.25, -493.68, -715.95, -562.59, -665.17, -611.79, 0.000, 0.000, 0.000, 13:14:52.652, 1559988892652
139, -563.47, -584.25, -829.96, -486.51, -698.31, -548.00, -643.98, -588.05, 0.000, 0.000, 0.000, 13:14:52.652, 1559988892652
140, -567.49, -587.56, -831.42, -493.06, -701.04, -552.98, -647.91, -591.74, 0.000, 0.000, 0.000, 13:14:52.652, 1559988892652
141, -579.49, -597.22, -846.04, -496.12, -710.16, -558.84, -658.33, -602.49, 0.000, 0.000, 0.000, 13:14:52.653, 1559988892653
142, -590.67, -609.82, -864.23, -498.85, -720.04, -565.99, -669.84, -615.77, 0.000, 0.000, 0.000, 13:14:52.653, 1559988892653
143, -586.49, -606.67, -863.31, -493.17, -716.44, -562.24, -668.14, -612.75, 0.000, 0.000, 0.000, 13:14:52.653, 1559988892653
144, -563.06, -583.60, -829.74, -485.57, -698.76, -547.33, -645.34, -588.57, 0.000, 0.000, 0.000, 13:14:52.653, 1559988892653
145, -565.77, -586.22, -830.17, -491.27, -701.26, -551.33, -649.94, -591.00, 0.000, 0.000, 0.000, 13:14:52.654, 1559988892654
146, -576.81, -595.96, -845.25, -494.17, -710.20, -557.65, -657.74, -601.98, 0.000, 0.000, 0.000, 13:14:52.655, 1559988892655
147, -591.49, -609.35, -864.48, -498.87, -720.75, -566.30, -668.25, -615.99, 0.004, -0.026, 1.020, 13:14:52.655, 1559988892655
148, -588.34, -606.09, -863.11, -492.43, -717.04, -562.44, -668.00, -612.93, 0.000, 0.000, 0.000, 13:14:52.655, 1559988892655
149, -565.86, -582.33, -829.34, -484.52, -696.35, -547.64, -644.78, -588.07, 0.000, 0.000, 0.000, 13:14:52.655, 1559988892655
150, -567.62, -586.33, -830.23, -491.74, -700.79, -551.89, -646.73, -591.85, 0.000, 0.000, 0.000, 13:14:52.655, 1559988892655
151, -577.28, -597.60, -846.30, -496.05, -708.95, -558.46, -657.23, -603.18, 0.000, 0.000, 0.000, 13:14:52.655, 1559988892655
152, -588.57, -610.02, -864.41, -498.73, -719.86, -565.66, -669.52, -615.43, 0.000, 0.000, 0.000, 13:14:52.655, 1559988892655
153, -587.65, -606.76, -863.31, -492.79, -718.39, -562.03, -667.11, -612.15, 0.000, 0.000, 0.000, 13:14:52.655, 1559988892655
154, -564.02, -583.40, -830.30, -484.74, -696.97, -547.71, -646.88, -587.83, 0.000, 0.000, 0.000, 13:14:52.655, 1559988892655
155, -565.03, -586.78, -830.93, -491.83, -700.35, -552.27, -650.86, -591.14, 0.000, 0.000, 0.000, 13:14:52.655, 1559988892655
156, -576.90, -597.51, -846.28, -495.78, -709.60, -559.17, -659.35, -602.76, 0.000, 0.000, 0.000, 13:14:52.657, 1559988892657
157, -588.95, -609.51, -864.57, -498.47, -720.13, -566.86, -670.57, -615.72, 0.002, -0.024, 1.020, 13:14:52.657, 1559988892657
158, -588.21, -607.19, -863.92, -493.15, -715.97, -562.48, -667.67, -613.02, 0.000, 0.000, 0.000, 13:14:52.657, 1559988892657
159, -564.74, -584.25, -830.55, -485.28, -697.91, -546.97, -646.79, -588.43, 0.000, 0.000, 0.000, 13:14:52.657, 1559988892657
160, -566.37, -586.62, -830.77, -492.12, -702.20, -551.80, -649.07, -591.45, 0.000, 0.000, 0.000, 13:14:52.658, 1559988892658
161, -577.61, -597.35, -846.37, -496.32, -708.39, -558.91, -658.55, -603.25, 0.000, 0.000, 0.000, 13:14:52.658, 1559988892658
162, -590.82, -610.40, -865.21, -499.99, -721.22, -566.08, -669.99, -615.79, 0.000, 0.000, 0.000, 13:14:52.659, 1559988892659
163, -590.64, -608.30, -864.99, -493.57, -718.88, -562.59, -668.54, -613.71, 0.000, 0.000, 0.000, 13:14:52.659, 1559988892659
164, -565.99, -584.95, -831.64, -485.61, -696.79, -548.22, -646.50, -589.64, 0.000, 0.000, 0.000, 13:14:52.660, 1559988892660
165, -565.07, -586.80, -830.97, -491.81, -700.77, -552.11, -651.46, -591.85, 0.000, 0.000, 0.000, 13:14:52.660, 1559988892660
166, -576.23, -597.73, -846.44, -495.67, -709.15, -559.40, -660.32, -602.92, 0.000, 0.000, 0.000, 13:14:52.661, 1559988892661
167, -588.52, -610.00, -864.43, -498.85, -719.70, -566.82, -669.75, -615.61, 0.008, -0.026, 1.022, 13:14:52.661, 1559988892661
168, -587.98, -608.66, -865.28, -494.02, -715.50, -563.47, -668.63, -613.78, 0.000, 0.000, 0.000, 13:14:52.661, 1559988892661
169, -562.86, -584.59, -831.35, -485.75, -698.49, -547.75, -647.80, -588.72, 0.000, 0.000, 0.000, 13:14:52.661, 1559988892661
170, -566.19, -585.97, -830.17, -491.87, -703.34, -551.37, -649.79, -590.91, 0.000, 0.000, 0.000, 13:14:52.662, 1559988892662
171, -577.32, -596.84, -845.75, -496.03, -709.94, -558.59, -658.75, -602.54, 0.000, 0.000, 0.000, 13:14:52.662, 1559988892662
172, -591.16, -610.16, -864.83, -499.63, -719.37, -566.08, -669.66, -615.54, 0.000, 0.000, 0.000, 13:14:52.662, 1559988892662
173, -590.02, -609.20, -866.62, -494.47, -717.40, -563.62, -670.40, -614.36, 0.000, 0.000, 0.000, 13:14:52.662, 1559988892662
174, -565.16, -585.37, -832.18, -485.39, -699.52, -548.27, -651.08, -589.06, 0.000, 0.000, 0.000, 13:14:52.662, 1559988892662
175, -564.52, -586.60, -830.64, -491.11, -701.55, -552.11, -651.58, -590.44, 0.000, 0.000, 0.000, 13:14:52.662, 1559988892662
176, -576.03, -596.75, -845.52, -494.11, -709.40, -558.55, -659.31, -601.69, 0.000, 0.000, 0.000, 13:14:52.663, 1559988892663
177, -592.92, -611.14, -865.88, -499.47, -721.69, -567.82, -670.37, -616.55, 0.006, -0.024, 1.020, 13:14:52.663, 1559988892663
178, -590.56, -608.88, -866.31, -493.55, -718.61, -564.29, -669.23, -614.20, 0.000, 0.000, 0.000, 13:14:52.663, 1559988892663
179, -564.45, -585.37, -832.54, -484.68, -698.92, -548.98, -647.82, -589.62, 0.000, 0.000, 0.000, 13:14:52.664, 1559988892664
180, -565.92, -586.76, -831.46, -491.94, -701.49, -552.67, -649.41, -591.90, 0.000, 0.000, 0.000, 13:14:52.665, 1559988892665
181, -576.18, -596.77, -846.30, -496.21, -711.01, -558.93, -657.86, -602.80, 0.000, 0.000, 0.000, 13:14:52.665, 1559988892665
182, -590.26, -609.58, -864.81, -498.69, -720.17, -566.97, -669.95, -616.13, 0.000, 0.000, 0.000, 13:14:52.665, 1559988892665
183, -590.33, -609.09, -866.73, -494.02, -717.76, -564.69, -668.70, -614.72, 0.000, 0.000, 0.000, 13:14:52.665, 1559988892665
184, -565.86, -585.44, -832.80, -485.12, -700.79, -548.67, -646.99, -589.91, 0.000, 0.000, 0.000, 13:14:52.665, 1559988892665
185, -566.66, -587.25, -831.91, -492.30, -702.02, -553.00, -651.17, -592.75, 0.000, 0.000, 0.000, 13:14:52.665, 1559988892665
186, -576.32, -597.62, -847.71, -496.77, -710.18, -560.05, -660.92, -604.10, 0.000, 0.000, 0.000, 13:14:52.665, 1559988892665
187, -589.71, -610.67, -866.13, -499.63, -717.65, -567.26, -669.97, -616.60, 0.002, -0.028, 1.016, 13:14:52.666, 1559988892666
188, -589.46, -609.58, -867.94, -495.16, -717.36, -565.05, -667.98, -615.50, 0.000, 0.000, 0.000, 13:14:52.666, 1559988892666
189, -565.28, -585.71, -834.26, -486.89, -700.08, -550.10, -646.70, -591.18, 0.000, 0.000, 0.000, 13:14:52.666, 1559988892666
190, -568.70, -587.00, -832.04, -493.06, -703.28, -553.30, -648.45, -592.01, 0.000, 0.000, 0.000, 13:14:52.666, 1559988892666
191, -577.66, -597.15, -846.33, -495.81, -712.37, -559.08, -660.27, -601.62, 0.000, 0.000, 0.000, 13:14:52.666, 1559988892666
192, -589.57, -609.38, -864.41, -498.67, -721.65, -565.92, -671.20, -614.58, 0.000, 0.000, 0.000, 13:14:52.667, 1559988892667
193, -590.62, -609.55, -867.45, -494.33, -722.23, -564.72, -669.32, -614.96, 0.000, 0.000, 0.000, 13:14:52.667, 1559988892667
194, -568.11, -586.22, -834.12, -486.44, -699.63, -549.70, -647.51, -590.64, 0.000, 0.000, 0.000, 13:14:52.667, 1559988892667
195, -566.24, -587.31, -832.16, -493.01, -701.11, -552.74, -648.11, -591.58, 0.000, 0.000, 0.000, 13:14:52.667, 1559988892667
196, -576.56, -597.73, -847.18, -496.16, -710.72, -559.26, -658.95, -602.47, 0.000, 0.000, 0.000, 13:14:52.668, 1559988892668
197, -588.12, -609.67, -865.08, -498.67, -721.49, -566.77, -670.37, -615.25, 0.004, -0.024, 1.014, 13:14:52.669, 1559988892669
198, -590.53, -609.11, -867.78, -494.80, -718.41, -564.83, -669.52, -615.61, 0.000, 0.000, 0.000, 13:14:52.670, 1559988892670
199, -565.36, -586.22, -834.55, -486.06, -700.84, -549.76, -648.76, -591.67, 0.000, 0.000, 0.000, 13:14:52.670, 1559988892670
200, -566.08, -587.98, -832.60, -492.25, -702.00, -553.50, -650.10, -593.35, 0.000, 0.000, 0.000, 13:14:52.670, 1559988892670
201, -579.18, -598.00, -847.89, -495.52, -711.25, -559.55, -659.42, -603.90, 0.000, 0.000, 0.000, 13:14:52.671, 1559988892671
202, -592.52, -609.58, -865.41, -498.53, -719.99, -566.19, -668.07, -616.10, 0.000, 0.000, 0.000, 13:14:52.672, 1559988892672
203, -592.97, -609.13, -868.50, -494.22, -720.26, -564.38, -668.03, -616.19, 0.000, 0.000, 0.000, 13:14:52.672, 1559988892672
204, -567.89, -585.75, -835.37, -485.97, -701.89, -549.76, -648.71, -591.94, 0.000, 0.000, 0.000, 13:14:52.672, 1559988892672
205, -566.77, -587.23, -832.33, -491.98, -701.84, -552.38, -648.85, -592.48, 0.000, 0.000, 0.000, 13:14:52.673, 1559988892673
206, -579.22, -598.60, -847.31, -496.07, -709.42, -559.49, -660.43, -603.79, 0.000, 0.000, 0.000, 13:14:52.673, 1559988892673
207, -590.31, -610.56, -865.39, -498.82, -720.58, -567.22, -670.84, -615.30, 0.004, -0.030, 1.014, 13:14:52.673, 1559988892673
208, -590.13, -610.94, -868.30, -493.93, -719.64, -565.34, -670.71, -614.54, 0.000, 0.000, 0.000, 13:14:52.673, 1559988892673
209, -568.25, -586.98, -835.15, -484.81, -700.08, -549.88, -649.43, -590.56, 0.000, 0.000, 0.000, 13:14:52.674, 1559988892674
210, -566.57, -586.98, -832.27, -490.89, -701.55, -552.40, -648.94, -591.49, 0.000, 0.000, 0.000, 13:14:52.674, 1559988892674
211, -578.51, -597.42, -847.73, -495.72, -709.40, -560.31, -658.21, -602.85, 0.000, 0.000, 0.000, 13:14:52.674, 1559988892674
212, -590.06, -609.67, -865.59, -498.94, -720.24, -567.67, -670.31, -615.99, 0.000, 0.000, 0.000, 13:14:52.674, 1559988892674
213, -591.83, -610.22, -868.21, -494.24, -719.10, -565.07, -670.17, -616.06, 0.000, 0.000, 0.000, 13:14:52.674, 1559988892674
214, -567.53, -586.49, -834.99, -485.90, -700.84, -549.41, -647.75, -591.56, 0.000, 0.000, 0.000, 13:14:52.674, 1559988892674
215, -567.40, -587.16, -831.64, -491.34, -701.93, -552.00, -649.23, -591.90, 0.000, 0.000, 0.000, 13:14:52.675, 1559988892675
216, -577.23, -598.53, -847.56, -495.18, -710.43, -559.31, -658.62, -603.68, 0.000, 0.000, 0.000, 13:14:52.675, 1559988892675
217, -589.57, -610.63, -865.84, -498.94, -718.92, -566.53, -671.07, -616.06, 0.000, -0.030, 1.022, 13:14:52.676, 1559988892676
218, -592.52, -610.90, -869.13, -495.34, -721.27, -564.45, -671.69, -615.86, 0.000, 0.000, 0.000, 13:14:52.677, 1559988892677
219, -570.48, -587.74, -835.98, -486.28, -702.58, -549.14, -650.53, -591.00, 0.000, 0.000, 0.000, 13:14:52.677, 1559988892677
220, -566.95, -588.28, -833.18, -492.83, -703.28, -552.60, -651.08, -592.28, 0.000, 0.000, 0.000, 13:14:52.677, 1559988892677
221, -579.36, -599.07, -848.23, -496.25, -711.32, -559.49, -659.96, -603.90, 0.000, 0.000, 0.000, 13:14:52.678, 1559988892678
222, -590.29, -610.78, -865.68, -498.49, -722.03, -566.35, -672.47, -616.60, 0.000, 0.000, 0.000, 13:14:52.678, 1559988892678
223, -592.70, -612.19, -869.97, -494.38, -722.72, -565.25, -671.69, -617.38, 0.000, 0.000, 0.000, 13:14:52.678, 1559988892678
224, -570.17, -588.95, -836.65, -485.46, -703.59, -550.03, -648.85, -591.36, 0.000, 0.000, 0.000, 13:14:53.120, 1559988893120
225, -568.20, -589.50, -833.03, -491.63, -703.86, -552.65, -649.81, -590.47, 0.000, 0.000, 0.000, 13:14:53.120, 1559988893120
226, -580.12, -601.55, -848.61, -495.31, -713.11, -558.95, -660.85, -601.78, 0.000, 0.000, 0.000, 13:14:53.120, 1559988893120
227, -591.11, -613.13, -866.09, -498.51, -721.25, -565.41, -670.53, -613.78, 0.000, -0.026, 1.018, 13:14:53.121, 1559988893121
228, -593.10, -615.34, -870.31, -494.31, -722.10, -564.02, -669.39, -614.81, 0.000, 0.000, 0.000, 13:14:53.121, 1559988893121
229, -568.16, -592.48, -837.10, -485.10, -704.30, -548.76, -651.44, -589.42, 0.000, 0.000, 0.000, 13:14:53.121, 1559988893121
230, -569.10, -592.86, -833.65, -491.81, -703.05, -551.28, -651.87, -589.39, 0.000, 0.000, 0.000, 13:14:53.121, 1559988893121
231, -581.50, -604.15, -849.12, -496.41, -710.16, -557.92, -660.25, -600.08, 0.000, 0.000, 0.000, 13:14:53.121, 1559988893121
232, -590.96, -616.62, -866.73, -499.20, -720.58, -565.16, -669.12, -612.01, 0.000, 0.000, 0.000, 13:14:53.121, 1559988893121
233, -595.76, -620.26, -872.79, -495.38, -721.38, -565.01, -670.95, -614.96, 0.000, 0.000, 0.000, 13:14:53.121, 1559988893121
234, -572.12, -596.99, -839.44, -486.35, -702.18, -549.34, -649.30, -590.13, 0.000, 0.000, 0.000, 13:14:53.122, 1559988893122
235, -567.82, -595.20, -834.19, -491.72, -704.06, -551.24, -649.65, -589.33, 0.000, 0.000, 0.000, 13:14:53.122, 1559988893122
236, -578.91, -606.27, -849.19, -495.47, -711.39, -557.97, -659.98, -600.73, 0.000, -0.026, 1.020, 13:14:53.122, 1559988893122
237, -592.86, -617.94, -865.77, -498.09, -721.38, -564.14, -669.79, -611.68, 0.000, 0.000, 0.000, 13:14:53.122, 1559988893122
238, -595.14, -619.48, -871.14, -494.85, -723.66, -563.31, -672.21, -613.53, 0.000, 0.000, 0.000, 13:14:53.123, 1559988893123
239, -569.72, -595.16, -838.44, -485.77, -704.57, -548.40, -652.94, -589.24, 0.000, 0.000, 0.000, 13:14:53.123, 1559988893123
240, -567.91, -594.27, -833.61, -491.60, -703.63, -550.14, -651.29, -588.19, 0.000, 0.000, 0.000, 13:14:53.123, 1559988893123
241, -581.50, -605.84, -849.61, -495.96, -710.03, -558.26, -658.30, -600.95, 0.000, 0.000, 0.000, 13:14:53.123, 1559988893123
242, -592.79, -616.57, -866.60, -497.97, -720.33, -565.36, -668.45, -612.82, 0.000, 0.000, 0.000, 13:14:53.124, 1559988893124
243, -595.25, -617.96, -872.12, -494.96, -718.41, -564.63, -670.02, -615.43, 0.000, 0.000, 0.000, 13:14:53.124, 1559988893124
244, -571.51, -595.47, -839.84, -487.18, -700.30, -550.34, -649.61, -591.32, 0.000, 0.000, 0.000, 13:14:53.124, 1559988893124
245, -568.09, -593.98, -834.79, -492.70, -702.49, -552.33, -650.50, -590.47, 0.000, 0.000, 0.000, 13:14:53.124, 1559988893124
246, -578.95, -604.44, -849.75, -496.41, -714.29, -558.70, -661.08, -601.84, -0.002, -0.028, 1.018, 13:14:53.125, 1559988893125
247, -592.14, -616.13, -866.76, -498.73, -723.46, -565.48, -672.72, -613.78, 0.000, 0.000, 0.000, 13:14:53.134, 1559988893134
248, -594.04, -617.11, -871.83, -495.63, -723.24, -565.16, -671.94, -615.70, 0.000, 0.000, 0.000, 13:14:53.134, 1559988893134
249, -570.15, -592.97, -838.95, -486.55, -701.06, -550.95, -651.22, -591.52, 0.000, 0.000, 0.000, 13:14:53.134, 1559988893134
250, -566.48, -591.47, -833.21, -491.05, -701.93, -552.40, -651.15, -591.00, 0.000, 0.000, 0.000, 13:14:53.135, 1559988893135
251, -575.94, -601.75, -848.79, -496.23, -711.25, -559.67, -663.09, -602.63, 0.000, 0.000, 0.000, 13:14:53.136, 1559988893136
252, -591.29, -613.49, -866.13, -498.65, -720.08, -566.53, -671.94, -615.16, 0.000, 0.000, 0.000, 13:14:53.136, 1559988893136
253, -594.94, -615.16, -872.05, -495.29, -722.41, -566.37, -674.84, -617.74, 0.000, 0.000, 0.000, 13:14:53.136, 1559988893136
254, -572.54, -592.23, -840.14, -486.53, -702.22, -551.86, -651.49, -593.26, 0.000, 0.000, 0.000, 13:14:53.136, 1559988893136
255, -571.29, -590.44, -834.10, -491.87, -702.43, -553.61, -651.13, -591.23, 0.000, 0.000, 0.000, 13:14:53.136, 1559988893136
0, -579.71, -600.46, -849.03, -496.19, -711.61, -560.27, -660.54, -602.56, 0.000, -0.026, 1.028, 13:14:53.136, 1559988893136
1, -589.86, -612.68, -866.62, -498.60, -720.66, -567.58, -670.55, -615.03, 0.000, 0.000, 0.000, 13:14:53.137, 1559988893137
2, -594.09, -615.57, -872.84, -494.51, -721.63, -567.53, -671.02, -617.62, 0.000, 0.000, 0.000, 13:14:53.137, 1559988893137
3, -571.40, -591.78, -840.14, -484.85, -702.11, -551.71, -652.98, -592.77, 0.000, 0.000, 0.000, 13:14:53.137, 1559988893137
4, -568.32, -589.80, -833.59, -490.22, -702.54, -552.80, -650.91, -590.58, 0.000, 0.000, 0.000, 13:14:53.138, 1559988893138
5, -580.05, -600.95, -848.63, -494.44, -712.51, -560.00, -660.56, -602.65, 0.000, 0.000, 0.000, 13:14:53.138, 1559988893138
6, -592.70, -612.71, -866.31, -497.75, -723.59, -567.33, -670.26, -614.99, 0.000, 0.000, 0.000, 13:14:53.138, 1559988893138
7, -595.05, -615.59, -873.53, -495.07, -724.26, -567.29, -674.35, -617.53, 0.000, 0.000, 0.000, 13:14:53.138, 1559988893138
8, -571.06, -591.81, -840.67, -486.17, -704.06, -551.44, -653.07, -592.70, 0.000, 0.000, 0.000, 13:14:53.138, 1559988893138
9, -569.43, -590.18, -834.10, -492.19, -703.57, -552.92, -651.64, -591.45, 0.000, 0.000, 0.000, 13:14:53.138, 1559988893138
10, -581.44, -601.91, -850.10, -497.15, -713.42, -560.43, -662.35, -604.32, 0.002, -0.024, 1.020, 13:14:53.139, 1559988893139
11, -592.30, -613.76, -868.23, -500.99, -722.07, -567.82, -671.78, -616.68, 0.000, 0.000, 0.000, 13:14:53.140, 1559988893140
12, -595.72, -615.28, -873.86, -496.52, -722.88, -566.75, -674.20, -618.54, 0.000, 0.000, 0.000, 13:14:53.140, 1559988893140
13, -572.67, -592.39, -841.77, -486.73, -703.66, -552.13, -652.87, -594.91, 0.000, 0.000, 0.000, 13:14:53.141, 1559988893141
14, -567.67, -589.66, -834.28, -490.82, -705.15, -552.76, -650.23, -592.52, 0.000, 0.000, 0.000, 13:14:53.141, 1559988893141
15, -579.63, -600.23, -849.17, -495.02, -714.16, -560.49, -661.08, -603.97, 0.000, 0.000, 0.000, 13:14:53.141, 1559988893141
16, -591.07, -613.60, -867.81, -499.20, -721.96, -569.14, -673.66, -617.62, 0.000, 0.000, 0.000, 13:14:53.142, 1559988893142
17, -594.60, -616.75, -874.87, -495.78, -721.31, -568.99, -675.00, -620.69, 0.000, 0.000, 0.000, 13:14:53.142, 1559988893142
18, -571.11, -591.99, -841.45, -485.77, -703.32, -552.00, -653.27, -594.76, 0.000, 0.000, 0.000, 13:14:53.142, 1559988893142
19, -567.67, -589.73, -834.12, -490.49, -704.15, -553.47, -650.50, -592.34, 0.000, 0.000, 0.000, 13:14:53.142, 1559988893142
20, -579.13, -601.80, -850.71, -496.16, -712.17, -562.17, -660.40, -605.55, 0.006, -0.024, 1.016, 13:14:53.143, 1559988893143
21, -592.25, -612.35, -867.27, -499.11, -722.23, -568.45, -672.65, -616.95, 0.000, 0.000, 0.000, 13:14:53.144, 1559988893144
22, -596.99, -614.78, -873.66, -495.23, -723.88, -567.64, -676.32, -618.94, 0.000, 0.000, 0.000, 13:14:53.144, 1559988893144
23, -572.61, -591.92, -842.19, -486.80, -704.68, -552.92, -654.24, -595.45, 0.000, 0.000, 0.000, 13:14:53.144, 1559988893144
24, -569.46, -589.50, -835.13, -492.21, -703.01, -554.82, -651.64, -593.82, 0.000, 0.000, 0.000, 13:14:53.145, 1559988893145
25, -580.54, -601.04, -850.62, -497.04, -713.56, -562.21, -660.99, -605.44, 0.000, 0.000, 0.000, 13:14:53.146, 1559988893146
26, -592.79, -612.86, -867.78, -499.09, -722.12, -568.27, -670.89, -617.24, 0.000, 0.000, 0.000, 13:14:53.146, 1559988893146
27, -596.84, -616.66, -875.65, -496.43, -723.01, -569.08, -673.37, -621.38, 0.000, 0.000, 0.000, 13:14:53.146, 1559988893146
28, -576.25, -592.54, -842.17, -485.97, -703.61, -552.92, -652.87, -595.09, 0.000, 0.000, 0.000, 13:14:53.147, 1559988893147
29, -569.99, -589.46, -834.21, -491.63, -701.78, -553.54, -650.93, -592.52, 0.000, 0.000, 0.000, 13:14:53.147, 1559988893147
30, -580.01, -600.48, -849.72, -495.69, -712.66, -560.58, -662.64, -604.26, 0.006, -0.032, 1.018, 13:14:53.147, 1559988893147
31, -594.42, -612.19, -867.34, -498.38, -723.01, -567.89, -672.65, -616.44, 0.000, 0.000, 0.000, 13:14:53.148, 1559988893148
32, -597.66, -614.40, -874.22, -495.00, -724.55, -567.20, -674.84, -619.50, 0.000, 0.000, 0.000, 13:14:53.149, 1559988893149
33, -575.94, -592.46, -843.20, -487.00, -706.40, -553.12, -653.21, -596.55, 0.000, 0.000, 0.000, 13:14:53.149, 1559988893149
34, -569.79, -589.39, -835.08, -492.12, -705.06, -554.08, -649.23, -593.30, 0.000, 0.000, 0.000, 13:14:53.151, 1559988893151
35, -581.01, -600.97, -850.89, -496.59, -713.45, -561.90, -659.69, -605.98, 0.000, 0.000, 0.000, 13:14:53.155, 1559988893155
36, -591.70, -612.55, -868.05, -499.92, -723.59, -568.45, -672.50, -618.00, 0.000, 0.000, 0.000, 13:14:53.155, 1559988893155
37, -596.70, -616.06, -875.94, -496.97, -725.36, -568.99, -677.12, -621.56, 0.000, 0.000, 0.000, 13:14:53.157, 1559988893157
38, -575.60, -592.90, -843.64, -486.20, -702.67, -552.96, -654.62, -597.17, 0.000, 0.000, 0.000, 13:14:53.157, 1559988893157
39, -570.91, -590.51, -835.78, -492.32, -700.88, -553.92, -652.83, -594.31, 0.000, 0.000, 0.000, 13:14:53.158, 1559988893158
40, -582.75, -601.49, -851.87, -497.06, -711.95, -562.37, -662.37, -605.96, 0.004, -0.032, 1.018, 13:14:53.161, 1559988893161
41, -593.22, -612.21, -868.14, -499.23, -722.83, -569.21, -671.51, -617.51, 0.000, 0.000, 0.000, 13:14:53.161, 1559988893161
42, -599.16, -615.39, -875.90, -496.68, -725.94, -569.32, -675.13, -621.11, 0.000, 0.000, 0.000, 13:14:53.162, 1559988893162
43, -574.78, -593.17, -844.14, -487.02, -705.00, -554.46, -656.16, -597.37, 0.000, 0.000, 0.000, 13:14:53.163, 1559988893163
44, -567.78, -590.44, -835.64, -492.07, -702.94, -554.73, -652.02, -594.09, 0.000, 0.000, 0.000, 13:14:53.164, 1559988893164
45, -579.60, -600.97, -850.46, -495.74, -713.91, -561.57, -660.78, -605.89, 0.000, 0.000, 0.000, 13:14:53.165, 1559988893165
46, -594.91, -612.62, -867.18, -498.51, -721.58, -568.11, -671.00, -617.15, 0.000, 0.000, 0.000, 13:14:53.166, 1559988893166
47, -598.20, -615.88, -875.23, -495.47, -723.79, -568.65, -676.34, -620.26, 0.000, 0.000, 0.000, 13:14:53.166, 1559988893166
48, -575.74, -593.13, -844.14, -486.20, -705.49, -553.63, -656.16, -596.57, 0.000, 0.000, 0.000, 13:14:53.166, 1559988893166
49, -571.33, -588.83, -835.15, -491.02, -701.87, -554.01, -649.70, -593.04, 0.000, 0.000, 0.000, 13:14:53.166, 1559988893166
50, -581.06, -600.26, -851.13, -496.63, -711.86, -562.17, -659.56, -605.46, 0.008, -0.030, 1.020, 13:14:53.167, 1559988893167
51, -594.44, -612.37, -868.23, -499.32, -723.53, -569.10, -672.81, -618.03, 0.000, 0.000, 0.000, 13:14:53.167, 1559988893167
52, -598.02, -616.71, -876.34, -496.66, -725.78, -570.28, -675.34, -622.25, 0.000, 0.000, 0.000, 13:14:53.168, 1559988893168
53, -575.80, -593.95, -844.74, -486.28, -706.02, -554.17, -653.61, -597.78, 0.000, 0.000, 0.000, 13:14:53.168, 1559988893168
54, -571.40, -590.56, -836.34, -491.78, -702.43, -554.68, -650.70, -594.13, 0.000, 0.000, 0.000, 13:14:53.168, 1559988893168
55, -582.29, -601.19, -851.51, -496.19, -711.84, -562.21, -662.53, -606.05, 0.000, 0.000, 0.000, 13:14:53.168, 1559988893168
56, -592.90, -611.57, -867.18, -498.22, -721.58, -567.98, -673.57, -616.95, 0.000, 0.000, 0.000, 13:14:53.168, 1559988893168
57, -597.71, -615.79, -875.79, -496.05, -726.70, -568.65, -676.01, -621.40, 0.000, 0.000, 0.000, 13:14:53.169, 1559988893169
58, -575.65, -593.68, -846.06, -487.42, -705.89, -554.64, -655.98, -598.38, 0.000, 0.000, 0.000, 13:14:53.169, 1559988893169
59, -571.22, -590.09, -836.00, -490.75, -703.90, -554.17, -651.44, -593.93, 0.000, 0.000, 0.000, 13:14:53.170, 1559988893170
60, -581.28, -600.90, -850.80, -495.65, -712.48, -561.52, -660.47, -605.26, 0.006, -0.032, 1.022, 13:14:53.170, 1559988893170
61, -593.13, -611.52, -867.52, -498.60, -722.65, -568.72, -672.01, -617.11, 0.000, 0.000, 0.000, 13:14:53.170, 1559988893170
62, -599.05, -617.27, -877.13, -496.81, -725.45, -570.68, -676.48, -622.43, 0.000, 0.000, 0.000, 13:14:53.171, 1559988893171
63, -575.54, -594.33, -845.39, -486.20, -705.58, -554.93, -656.52, -598.29, 0.000, 0.000, 0.000, 13:14:53.171, 1559988893171
64, -569.32, -590.22, -834.77, -489.70, -703.68, -554.23, -652.27, -593.08, 0.000, 0.000, 0.000, 13:14:53.171, 1559988893171
65, -583.09, -601.46, -850.71, -494.33, -712.17, -561.68, -660.96, -605.33, 0.000, 0.000, 0.000, 13:14:53.171, 1559988893171
66, -594.65, -612.37, -867.92, -498.33, -720.64, -568.52, -672.59, -617.06, 0.000, 0.000, 0.000, 13:14:53.171, 1559988893171
67, -598.20, -616.06, -876.88, -495.92, -724.58, -569.77, -676.59, -621.65, 0.000, 0.000, 0.000, 13:14:53.171, 1559988893171
68, -575.71, -594.09, -846.80, -486.58, -704.88, -554.86, -658.30, -599.00, 0.000, 0.000, 0.000, 13:14:53.172, 1559988893172
69, -572.47, -589.10, -835.55, -490.37, -703.79, -553.79, -653.43, -594.00, 0.000, 0.000, 0.000, 13:14:53.172, 1559988893172
70, -585.08, -600.28, -850.22, -495.56, -713.51, -561.57, -662.37, -604.70, 0.006, -0.030, 1.026, 13:14:53.172, 1559988893172
71, -594.74, -612.42, -867.99, -499.58, -723.24, -569.39, -672.94, -617.51, 0.000, 0.000, 0.000, 13:14:53.172, 1559988893172
72, -601.28, -617.44, -877.55, -496.45, -725.92, -570.35, -676.05, -623.01, 0.000, 0.000, 0.000, 13:14:53.172, 1559988893172
73, -577.17, -594.80, -846.51, -486.35, -708.80, -554.84, -655.73, -598.45, 0.000, 0.000, 0.000, 13:14:53.172, 1559988893172
74, -568.99, -590.56, -837.01, -491.38, -705.35, -555.33, -650.39, -594.27, 0.000, 0.000, 0.000, 13:14:53.173, 1559988893173
75, -579.33, -600.86, -851.69, -495.58, -713.22, -562.17, -661.25, -606.00, 0.000, 0.000, 0.000, 13:14:53.173, 1559988893173
76, -591.63, -612.91, -868.57, -499.47, -722.81, -569.34, -672.47, -618.12, 0.000, 0.000, 0.000, 13:14:53.174, 1559988893174
77, -598.71, -617.44, -877.73, -496.57, -726.36, -570.51, -676.72, -622.14, 0.000, 0.000, 0.000, 13:14:53.174, 1559988893174
78, -575.89, -594.38, -846.39, -485.97, -707.41, -554.26, -657.41, -598.65, 0.000, 0.000, 0.000, 13:14:53.174, 1559988893174
79, -569.19, -589.57, -835.11, -489.75, -707.48, -553.63, -653.39, -593.22, 0.000, 0.000, 0.000, 13:14:53.174, 1559988893174
80, -581.17, -601.44, -851.11, -495.76, -716.08, -561.83, -662.26, -604.99, 0.006, -0.026, 1.026, 13:14:53.174, 1559988893174
81, -593.82, -612.97, -868.28, -499.40, -723.95, -569.10, -673.44, -617.33, 0.000, 0.000, 0.000, 13:14:53.174, 1559988893174
82, -600.73, -618.61, -878.45, -496.70, -727.10, -571.20, -679.00, -623.08, 0.000, 0.000, 0.000, 13:14:53.175, 1559988893175
83, -579.63, -597.19, -848.81, -487.72, -707.75, -557.12, -657.12, -600.26, 0.000, 0.000, 0.000, 13:14:53.175, 1559988893175
84, -571.44, -589.68, -835.98, -490.35, -704.28, -554.86, -649.74, -593.37, 0.000, 0.000, 0.000, 13:14:53.175, 1559988893175
85, -580.34, -600.75, -851.09, -496.30, -714.52, -562.35, -660.67, -605.11, 0.000, 0.000, 0.000, 13:14:53.175, 1559988893175
86, -593.24, -611.63, -867.43, -499.29, -720.98, -568.76, -670.19, -616.28, 0.000, 0.000, 0.000, 13:14:53.175, 1559988893175
87, -598.56, -618.27, -879.18, -497.55, -725.47, -572.03, -677.39, -623.70, 0.000, 0.000, 0.000, 13:14:53.175, 1559988893175
88, -576.47, -596.05, -848.38, -487.25, -706.38, -556.04, -654.59, -600.01, 0.000, 0.000, 0.000, 13:14:53.176, 1559988893176
89, -568.34, -589.19, -835.78, -490.33, -703.03, -554.01, -649.14, -593.57, 0.002, -0.026, 1.030, 13:14:53.599, 1559988893599
90, -581.57, -600.46, -851.22, -494.93, -712.44, -562.21, -663.02, -605.53, 0.000, 0.000, 0.000, 13:14:53.599, 1559988893599
91, -593.53, -611.81, -867.49, -497.71, -722.18, -568.65, -671.98, -616.66, 0.000, 0.000, 0.000, 13:14:53.599, 1559988893599
92, -598.91, -618.70, -879.18, -496.95, -727.08, -571.85, -678.62, -623.66, 0.000, 0.000, 0.000, 13:14:53.599, 1559988893599
93, -577.28, -595.20, -848.56, -486.51, -710.18, -556.09, -657.07, -600.57, 0.000, 0.000, 0.000, 13:14:53.599, 1559988893599
94, -570.60, -588.43, -835.60, -490.11, -703.90, -554.57, -651.91, -593.37, 0.000, 0.000, 0.000, 13:14:53.599, 1559988893599
95, -582.37, -600.93, -851.47, -496.41, -714.97, -563.02, -662.28, -605.67, 0.000, 0.000, 0.000, 13:14:53.599, 1559988893599
96, -592.92, -611.79, -867.83, -498.47, -724.69, -568.83, -671.54, -616.71, 0.000, 0.000, 0.000, 13:14:53.599, 1559988893599
97, -602.47, -618.03, -878.92, -496.75, -726.59, -571.02, -677.91, -623.52, 0.000, 0.000, 0.000, 13:14:53.599, 1559988893599
98, -581.41, -595.61, -849.17, -487.56, -706.52, -556.20, -659.87, -600.75, 0.000, 0.000, 0.000, 13:14:53.600, 1559988893600
99, -570.19, -589.97, -836.80, -490.82, -703.14, -554.97, -651.42, -594.27, 0.002, -0.024, 1.024, 13:14:53.600, 1559988893600
100, -580.70, -601.06, -851.24, -495.78, -713.78, -562.73, -660.58, -605.87, 0.000, 0.000, 0.000, 13:14:53.600, 1559988893600
101, -593.51, -612.59, -868.07, -499.23, -724.13, -569.68, -674.24, -617.44, 0.000, 0.000, 0.000, 13:14:53.600, 1559988893600
102, -602.13, -618.07, -879.18, -497.35, -728.09, -571.22, -677.77, -623.17, 0.000, 0.000, 0.000, 13:14:53.600, 1559988893600
103, -579.36, -595.47, -849.25, -487.09, -708.75, -556.04, -658.08, -599.61, 0.000, 0.000, 0.000, 13:14:53.600, 1559988893600
104, -570.51, -590.47, -837.25, -491.58, -704.55, -555.80, -651.04, -593.42, 0.000, 0.000, 0.000, 13:14:53.600, 1559988893600
105, -582.49, -601.69, -851.85, -495.78, -712.66, -562.59, -661.28, -605.55, 0.000, 0.000, 0.000, 13:14:53.600, 1559988893600
106, -594.09, -612.91, -868.68, -498.60, -722.23, -569.57, -673.73, -617.06, 0.000, 0.000, 0.000, 13:14:53.600, 1559988893600
107, -600.10, -618.90, -880.03, -497.06, -728.64, -571.91, -678.13, -623.48, 0.000, 0.000, 0.000, 13:14:53.600, 1559988893600
108, -578.60, -597.60, -850.91, -488.36, -710.09, -557.16, -658.01, -601.42, 0.000, 0.000, 0.000, 13:14:53.600, 1559988893600
109, -570.93, -590.58, -837.56, -492.43, -704.68, -555.84, -651.93, -594.69, 0.006, -0.024, 1.024, 13:14:53.600, 1559988893600
110, -582.71, -601.31, -852.41, -497.66, -713.62, -563.29, -663.33, -606.18, 0.000, 0.000, 0.000, 13:14:53.600, 1559988893600
111, -595.45, -611.48, -868.39, -498.78, -721.87, -569.52, -674.91, -617.38, 0.000, 0.000, 0.000, 13:14:53.600, 1559988893600
112, -602.07, -619.39, -881.31, -498.31, -727.04, -573.26, -678.00, -625.47, 0.000, 0.000, 0.000, 13:14:53.600, 1559988893600
113, -578.60, -597.22, -850.89, -486.75, -707.66, -557.18, -658.12, -601.40, 0.000, 0.000, 0.000, 13:14:53.601, 1559988893601
114, -571.13, -590.69, -837.56, -490.55, -703.92, -555.57, -650.55, -594.29, 0.000, 0.000, 0.000, 13:14:53.601, 1559988893601
115, -581.28, -601.51, -852.03, -495.69, -713.94, -562.97, -661.08, -606.09, 0.000, 0.000, 0.000, 13:14:53.601, 1559988893601
116, -593.53, -612.15, -867.72, -497.71, -724.69, -568.94, -672.54, -617.13, 0.000, 0.000, 0.000, 13:14:53.601, 1559988893601
117, -602.13, -619.10, -879.65, -496.12, -727.26, -571.56, -679.27, -624.04, 0.000, 0.000, 0.000, 13:14:53.601, 1559988893601
118, -580.90, -597.24, -850.93, -486.69, -708.33, -557.32, -658.37, -601.80, 0.000, 0.000, 0.000, 13:14:53.601, 1559988893601
119, -573.19, -589.42, -836.72, -489.55, -705.26, -554.50, -652.92, -593.71, 0.004, -0.026, 1.016, 13:14:53.601, 1559988893601
120, -582.20, -600.41, -852.03, -495.49, -715.21, -562.33, -661.30, -605.62, 0.000, 0.000, 0.000, 13:14:53.601, 1559988893601
121, -592.86, -611.99, -868.81, -499.32, -722.65, -570.01, -671.36, -616.93, 0.000, 0.000, 0.000, 13:14:53.601, 1559988893601
122, -601.40, -619.52, -880.61, -497.91, -727.68, -572.34, -677.66, -623.64, 0.000, 0.000, 0.000, 13:14:53.601, 1559988893601
123, -579.45, -597.06, -850.48, -486.62, -710.03, -556.76, -659.09, -600.12, 0.000, 0.000, 0.000, 13:14:53.601, 1559988893601
124, -571.33, -589.44, -836.56, -490.53, -704.62, -555.13, -652.98, -592.63, 0.000, 0.000, 0.000, 13:14:53.601, 1559988893601
125, -582.20, -602.33, -853.19, -497.46, -713.07, -564.09, -661.92, -607.03, 0.000, 0.000, 0.000, 13:14:53.601, 1559988893601
126, -594.71, -612.57, -868.32, -498.06, -723.06, -570.08, -670.93, -617.36, 0.000, 0.000, 0.000, 13:14:53.601, 1559988893601
127, -600.08, -620.10, -881.17, -498.06, -727.44, -573.30, -677.39, -624.87, 0.000, 0.000, 0.000, 13:14:53.601, 1559988893601
128, -580.18, -598.29, -852.47, -488.94, -709.00, -557.74, -657.45, -602.25, 0.000, 0.000, 0.000, 13:14:53.601, 1559988893601
129, -571.00, -590.62, -837.92, -491.20, -704.44, -555.82, -649.61, -594.20, 0.000, -0.022, 1.014, 13:14:53.601, 1559988893601
130, -582.04, -601.40, -852.92, -496.10, -715.50, -563.62, -661.41, -606.38, 0.000, 0.000, 0.000, 13:14:53.601, 1559988893601
131, -593.57, -613.42, -869.95, -499.40, -724.06, -570.48, -673.73, -618.43, 0.000, 0.000, 0.000, 13:14:53.601, 1559988893601
132, -603.50, -620.19, -881.93, -498.33, -729.49, -573.50, -680.14, -625.36, 0.000, 0.000, 0.000, 13:14:53.602, 1559988893602
133, -580.52, -597.51, -851.58, -486.53, -709.24, -556.94, -661.25, -601.95, 0.000, 0.000, 0.000, 13:14:53.602, 1559988893602
134, -570.66, -589.44, -836.54, -489.37, -703.81, -554.70, -653.10, -593.48, 0.000, 0.000, 0.000, 13:14:53.602, 1559988893602
135, -582.22, -601.71, -852.47, -497.06, -711.66, -563.64, -662.08, -606.05, 0.000, 0.000, 0.000, 13:14:53.602, 1559988893602
136, -595.05, -612.84, -868.79, -499.54, -721.98, -569.66, -673.21, -617.29, 0.000, 0.000, 0.000, 13:14:53.602, 1559988893602
137, -603.74, -620.04, -881.60, -497.86, -728.24, -572.61, -680.92, -624.95, 0.000, 0.000, 0.000, 13:14:53.602, 1559988893602
138, -581.53, -598.00, -852.94, -487.76, -710.11, -557.54, -660.65, -602.63, 0.000, 0.000, 0.000, 13:14:53.602, 1559988893602
139, -572.12, -589.88, -837.68, -490.51, -704.53, -555.33, -654.15, -593.64, 0.006, -0.024, 1.018, 13:14:53.602, 1559988893602
140, -581.50, -601.73, -852.34, -496.81, -714.81, -563.22, -662.10, -605.62, 0.000, 0.000, 0.000, 13:14:53.602, 1559988893602
141, -594.15, -611.70, -867.92, -498.87, -723.88, -568.70, -671.65, -616.04, 0.000, 0.000, 0.000, 13:14:53.602, 1559988893602
142, -603.90, -620.75, -882.27, -498.76, -729.34, -573.34, -680.07, -625.71, 0.000, 0.000, 0.000, 13:14:53.602, 1559988893602
143, -583.09, -599.63, -853.93, -488.54, -711.12, -558.86, -659.69, -603.47, 0.000, 0.000, 0.000, 13:14:53.602, 1559988893602
144, -571.67, -589.97, -837.54, -490.78, -704.97, -555.02, -653.79, -593.33, 0.000, 0.000, 0.000, 13:14:53.602, 1559988893602
145, -583.81, -601.57, -852.85, -496.61, -713.74, -563.33, -663.38, -606.02, 0.000, 0.000, 0.000, 13:14:53.602, 1559988893602
146, -591.81, -612.82, -869.30, -499.45, -722.10, -569.70, -673.17, -618.45, 0.000, 0.000, 0.000, 13:14:53.602, 1559988893602
147, -602.49, -620.19, -882.42, -496.81, -728.47, -573.17, -677.70, -625.94, 0.000, 0.000, 0.000, 13:14:53.602, 1559988893602
148, -583.92, -599.90, -854.82, -486.89, -712.37, -558.57, -657.34, -604.23, 0.000, 0.000, 0.000, 13:14:53.602, 1559988893602
149, -574.69, -590.73, -837.88, -490.53, -708.28, -555.24, -650.28, -594.27, 0.006, -0.022, 1.026, 13:14:53.602, 1559988893602
150, -582.91, -601.51, -852.61, -496.39, -717.13, -563.02, -662.28, -606.38, 0.000, 0.000, 0.000, 13:14:53.602, 1559988893602
151, -595.29, -612.21, -868.23, -498.85, -722.99, -569.52, -671.36, -617.74, 0.000, 0.000, 0.000, 13:14:53.602, 1559988893602
152, -604.48, -620.35, -881.93, -498.78, -730.03, -573.41, -678.49, -625.67, 0.000, 0.000, 0.000, 13:14:53.603, 1559988893603
153, -584.16, -599.56, -854.78, -488.70, -713.89, -559.20, -661.43, -604.64, 0.000, 0.000, 0.000, 13:14:53.603, 1559988893603
154, -572.03, -590.13, -838.12, -491.00, -707.97, -555.08, -653.10, -594.62, 0.000, 0.000, 0.000, 13:14:53.603, 1559988893603
155, -581.97, -601.28, -852.52, -496.43, -716.80, -562.91, -663.27, -605.60, 0.000, 0.000, 0.000, 13:14:53.603, 1559988893603
156, -593.01, -613.04, -869.42, -498.27, -723.41, -570.48, -674.17, -617.98, 0.000, 0.000, 0.000, 13:14:53.603, 1559988893603
157, -602.60, -621.91, -883.79, -498.91, -729.02, -574.37, -680.25, -627.03, 0.000, 0.000, 0.000, 13:14:53.603, 1559988893603
158, -583.83, -600.35, -855.51, -488.48, -711.77, -559.29, -661.41, -604.28, 0.000, 0.000, 0.000, 13:14:53.603, 1559988893603
159, -572.67, -590.33, -838.32, -490.11, -704.46, -555.98, -653.39, -593.82, 0.008, -0.024, 1.024, 13:14:53.603, 1559988893603
160, -582.64, -600.95, -852.34, -495.67, -715.05, -562.55, -663.78, -605.31, 0.000, 0.000, 0.000, 13:14:53.603, 1559988893603
161, -592.57, -611.52, -868.41, -498.31, -723.53, -569.30, -672.94, -617.02, 0.000, 0.000, 0.000, 13:14:53.603, 1559988893603
162, -602.63, -619.52, -882.09, -498.24, -729.61, -572.83, -678.98, -625.54, 0.000, 0.000, 0.000, 13:14:53.603, 1559988893603
163, -582.64, -599.52, -855.54, -488.36, -712.82, -558.57, -661.48, -603.92, 0.000, 0.000, 0.000, 13:14:53.603, 1559988893603
164, -571.53, -590.33, -838.82, -489.93, -705.87, -555.75, -652.58, -593.86, 0.000, 0.000, 0.000, 13:14:53.603, 1559988893603
165, -581.66, -601.46, -852.70, -495.47, -713.36, -563.15, -663.00, -604.97, 0.000, 0.000, 0.000, 13:14:53.603, 1559988893603
166, -592.81, -611.68, -867.78, -498.09, -721.18, -569.10, -672.81, -615.97, 0.000, 0.000, 0.000, 13:14:53.603, 1559988893603
167, -603.27, -619.79, -882.31, -497.91, -729.29, -573.64, -680.81, -625.45, 0.000, 0.000, 0.000, 13:14:53.603, 1559988893603
168, -583.92, -600.97, -856.97, -489.48, -713.85, -560.18, -660.83, -605.51, 0.000, 0.000, 0.000, 13:14:53.603, 1559988893603
169, -572.56, -592.54, -839.78, -492.43, -706.02, -556.49, -651.31, -596.05, 0.010, -0.024, 1.022, 13:14:53.603, 1559988893603
170, -582.24, -601.06, -853.41, -497.48, -715.17, -563.42, -661.77, -606.98, 0.000, 0.000, 0.000, 13:14:53.603, 1559988893603
171, -593.01, -612.30, -870.06, -499.90, -724.24, -570.60, -672.27, -618.61, 0.000, 0.000, 0.000, 13:14:53.604, 1559988893604
172, -603.99, -622.38, -884.55, -500.28, -731.53, -575.16, -681.59, -627.66, 0.000, 0.000, 0.000, 13:14:53.604, 1559988893604
173, -585.50, -601.62, -857.32, -489.08, -712.73, -560.43, -663.09, -606.67, 0.000, 0.000, 0.000, 13:14:53.604, 1559988893604
174, -573.01, -591.70, -839.22, -490.33, -703.81, -556.16, -652.60, -595.20, 0.000, 0.000, 0.000, 13:14:53.604, 1559988893604
175, -582.96, -603.21, -854.10, -496.48, -714.05, -564.20, -663.20, -607.07, 0.000, 0.000, 0.000, 13:14:53.604, 1559988893604
176, -593.53, -613.56, -870.40, -499.78, -723.55, -571.27, -672.16, -618.83, 0.000, 0.000, 0.000, 13:14:53.604, 1559988893604
177, -603.14, -621.76, -884.21, -499.36, -731.33, -574.91, -679.85, -627.17, 0.000, 0.000, 0.000, 13:14:53.604, 1559988893604
178, -584.88, -600.95, -857.01, -489.12, -712.26, -559.24, -662.42, -604.82, 0.000, 0.000, 0.000, 13:14:53.604, 1559988893604
179, -570.35, -590.02, -838.77, -489.93, -705.29, -554.88, -653.39, -593.98, 0.006, -0.028, 1.014, 13:14:53.604, 1559988893604
180, -584.52, -601.71, -853.19, -496.88, -715.73, -563.29, -663.62, -606.47, 0.000, 0.000, 0.000, 13:14:53.604, 1559988893604
181, -597.51, -613.24, -869.46, -500.01, -723.28, -570.51, -674.08, -618.07, 0.000, 0.000, 0.000, 13:14:53.604, 1559988893604
182, -603.77, -621.83, -883.36, -497.57, -728.20, -573.72, -679.85, -626.56, 0.000, 0.000, 0.000, 13:14:53.604, 1559988893604
183, -583.92, -601.28, -856.88, -487.07, -713.98, -558.61, -662.75, -605.33, 0.000, 0.000, 0.000, 13:14:53.604, 1559988893604
184, -571.71, -590.67, -839.02, -490.49, -706.74, -555.37, -654.17, -594.76, 0.000, 0.000, 0.000, 13:14:53.604, 1559988893604
185, -583.05, -600.99, -852.47, -495.90, -714.52, -562.50, -662.73, -605.89, 0.000, 0.000, 0.000, 13:14:53.604, 1559988893604
186, -594.53, -611.36, -867.96, -497.93, -722.43, -568.61, -672.88, -616.62, 0.000, 0.000, 0.000, 13:14:53.604, 1559988893604
187, -604.84, -620.75, -883.25, -497.93, -730.16, -573.79, -680.88, -625.22, 0.000, 0.000, 0.000, 13:14:53.604, 1559988893604
188, -584.77, -600.50, -857.68, -488.21, -711.41, -559.89, -663.62, -604.15, 0.000, 0.000, 0.000, 13:14:53.604, 1559988893604
189, -571.36, -589.53, -839.31, -490.55, -704.50, -555.22, -652.94, -593.98, 0.004, -0.026, 1.018, 13:14:53.605, 1559988893605
190, -581.39, -600.59, -852.74, -496.21, -712.95, -562.37, -662.33, -605.15, 0.000, 0.000, 0.000, 13:14:53.605, 1559988893605
191, -594.47, -612.71, -869.35, -499.20, -722.50, -569.75, -674.53, -617.22, 0.000, 0.000, 0.000, 13:14:53.605, 1559988893605
192, -604.44, -621.58, -883.92, -499.20, -730.66, -573.59, -681.73, -625.80, 0.000, 0.000, 0.000, 13:14:53.605, 1559988893605
193, -585.24, -602.02, -857.90, -488.59, -713.49, -559.87, -661.34, -605.55, 0.000, 0.000, 0.000, 13:14:53.605, 1559988893605
194, -572.29, -592.03, -839.24, -489.12, -704.95, -555.69, -652.94, -595.27, 0.000, 0.000, 0.000, 13:14:53.605, 1559988893605
195, -582.06, -601.89, -852.92, -494.47, -715.05, -563.13, -664.18, -606.98, 0.000, 0.000, 0.000, 13:14:53.605, 1559988893605
196, -594.22, -613.89, -870.33, -499.56, -725.02, -571.24, -673.28, -619.01, 0.000, 0.000, 0.000, 13:14:53.605, 1559988893605
197, -605.64, -622.63, -885.04, -499.52, -729.40, -576.03, -681.30, -627.68, 0.000, 0.000, 0.000, 13:14:53.605, 1559988893605
198, -585.46, -602.56, -859.58, -489.48, -712.15, -561.79, -665.17, -607.01, 0.000, 0.000, 0.000, 13:14:53.605, 1559988893605
199, -572.81, -590.87, -839.84, -489.64, -704.17, -556.71, -653.03, -595.23, 0.002, -0.026, 1.026, 13:14:53.605, 1559988893605
200, -583.81, -602.51, -854.28, -496.45, -715.84, -564.85, -663.38, -606.76, 0.000, 0.000, 0.000, 13:14:53.605, 1559988893605
201, -596.66, -613.38, -870.11, -499.34, -724.62, -570.46, -674.42, -617.78, 0.000, 0.000, 0.000, 13:14:53.605, 1559988893605
202, -606.05, -621.96, -884.95, -498.91, -731.97, -574.37, -680.10, -627.17, 0.000, 0.000, 0.000, 13:14:53.605, 1559988893605
203, -586.78, -601.53, -858.73, -487.49, -712.77, -559.89, -664.11, -606.00, 0.000, 0.000, 0.000, 13:14:53.605, 1559988893605
204, -572.90, -591.00, -839.33, -488.85, -704.04, -556.09, -652.58, -594.13, 0.000, 0.000, 0.000, 13:14:53.605, 1559988893605
205, -583.69, -603.52, -854.35, -496.52, -713.29, -564.94, -662.30, -606.81, 0.000, 0.000, 0.000, 13:14:53.605, 1559988893605
206, -596.14, -614.09, -870.38, -499.65, -723.57, -571.06, -673.61, -618.23, 0.000, 0.000, 0.000, 13:14:53.606, 1559988893606
207, -605.78, -622.85, -885.44, -499.76, -729.56, -575.09, -681.55, -628.24, 0.000, 0.000, 0.000, 13:14:53.606, 1559988893606
208, -586.73, -604.03, -860.56, -489.26, -713.22, -561.43, -664.56, -607.86, 0.004, -0.028, 1.020, 13:14:53.606, 1559988893606
209, -574.44, -592.59, -840.72, -490.78, -706.29, -556.80, -653.43, -595.47, 0.000, 0.000, 0.000, 13:14:54.080, 1559988894080
210, -584.52, -603.21, -854.26, -496.92, -714.92, -564.63, -662.71, -607.45, 0.000, 0.000, 0.000, 13:14:54.081, 1559988894081
211, -594.94, -613.64, -870.35, -500.28, -722.72, -571.22, -672.99, -619.30, 0.000, 0.000, 0.000, 13:14:54.081, 1559988894081
212, -607.34, -622.14, -884.77, -499.38, -732.31, -575.16, -679.96, -627.44, 0.000, 0.000, 0.000, 13:14:54.081, 1559988894081
213, -588.59, -604.19, -860.92, -489.48, -716.73, -561.86, -663.62, -608.12, 0.000, 0.000, 0.000, 13:14:54.081, 1559988894081
214, -575.16, -592.68, -841.27, -490.55, -706.47, -556.94, -652.92, -596.50, 0.000, 0.000, 0.000, 13:14:54.081, 1559988894081
215, -584.88, -602.56, -854.53, -495.81, -716.24, -564.20, -663.24, -607.07, 0.000, 0.000, 0.000, 13:14:54.081, 1559988894081
216, -595.61, -612.91, -870.29, -499.14, -724.22, -570.91, -674.55, -618.34, 0.000, 0.000, 0.000, 13:14:54.082, 1559988894082
217, -607.92, -622.88, -886.18, -500.03, -732.49, -576.81, -681.66, -628.67, 0.000, 0.000, 0.000, 13:14:54.082, 1559988894082
218, -588.19, -603.81, -860.92, -488.43, -712.55, -562.24, -664.96, -607.97, 0.006, -0.024, 1.022, 13:14:54.082, 1559988894082
219, -573.86, -591.70, -840.14, -489.06, -703.68, -556.76, -655.80, -595.23, 0.000, 0.000, 0.000, 13:14:54.082, 1559988894082
220, -582.31, -602.18, -853.66, -495.74, -714.90, -564.09, -664.14, -606.45, 0.000, 0.000, 0.000, 13:14:54.082, 1559988894082
221, -595.20, -612.80, -869.75, -498.96, -722.45, -570.26, -672.79, -617.82, 0.000, 0.000, 0.000, 13:14:54.082, 1559988894082
222, -607.21, -623.01, -885.67, -499.81, -730.77, -575.71, -679.36, -627.84, 0.000, 0.000, 0.000, 13:14:54.082, 1559988894082
223, -588.99, -604.59, -861.73, -489.64, -716.33, -562.91, -665.59, -608.46, 0.000, 0.000, 0.000, 13:14:54.083, 1559988894083
224, -574.15, -592.41, -841.41, -490.22, -707.37, -557.61, -654.48, -596.50, 0.000, 0.000, 0.000, 13:14:54.083, 1559988894083
225, -585.10, -603.50, -855.69, -497.30, -714.85, -565.83, -662.82, -608.21, 0.000, 0.000, 0.000, 13:14:54.083, 1559988894083
226, -595.94, -613.69, -870.76, -499.09, -724.20, -571.27, -674.04, -618.14, 0.000, 0.000, 0.000, 13:14:54.083, 1559988894083
227, -608.53, -624.11, -886.78, -500.16, -733.36, -576.63, -683.94, -629.20, 0.000, 0.000, 0.000, 13:14:54.083, 1559988894083
228, -590.62, -605.31, -862.40, -489.84, -714.94, -563.06, -665.12, -609.15, 0.010, -0.020, 1.020, 13:14:54.083, 1559988894083
229, -574.28, -592.92, -841.83, -490.75, -705.31, -557.81, -653.48, -596.39, 0.000, 0.000, 0.000, 13:14:54.083, 1559988894083
230, -584.81, -603.47, -855.54, -496.97, -714.90, -565.21, -662.53, -607.99, 0.000, 0.000, 0.000, 13:14:54.083, 1559988894083
231, -596.99, -613.51, -870.53, -498.87, -724.00, -571.13, -673.84, -618.70, 0.000, 0.000, 0.000, 13:14:54.083, 1559988894083
232, -608.21, -623.75, -886.07, -499.34, -732.62, -576.88, -680.68, -628.58, 0.000, 0.000, 0.000, 13:14:54.083, 1559988894083
233, -587.60, -605.55, -863.09, -489.50, -716.15, -563.42, -666.62, -610.22, 0.000, 0.000, 0.000, 13:14:54.083, 1559988894083
234, -571.65, -591.90, -841.70, -489.82, -705.73, -556.87, -654.26, -596.50, 0.000, 0.000, 0.000, 13:14:54.084, 1559988894084
235, -582.26, -602.29, -854.98, -495.96, -714.65, -565.25, -663.56, -606.76, 0.000, 0.000, 0.000, 13:14:54.084, 1559988894084
236, -593.30, -614.14, -870.98, -499.47, -723.70, -572.03, -675.16, -618.85, 0.000, 0.000, 0.000, 13:14:54.084, 1559988894084
237, -607.45, -624.37, -886.56, -499.61, -732.31, -576.27, -682.91, -629.18, 0.000, 0.000, 0.000, 13:14:54.084, 1559988894084
238, -590.49, -605.64, -863.45, -489.30, -717.02, -562.46, -665.17, -609.58, 0.006, -0.022, 1.014, 13:14:54.084, 1559988894084
239, -575.60, -591.34, -841.19, -489.99, -708.13, -555.64, -654.66, -594.91, 0.000, 0.000, 0.000, 13:14:54.084, 1559988894084
240, -584.10, -603.36, -855.89, -497.17, -715.59, -564.92, -665.32, -607.45, 0.000, 0.000, 0.000, 13:14:54.084, 1559988894084
241, -594.76, -614.32, -871.00, -499.40, -723.95, -571.74, -674.06, -618.43, 0.000, 0.000, 0.000, 13:14:54.085, 1559988894085
242, -607.03, -624.22, -886.85, -498.96, -732.11, -576.65, -682.22, -628.91, 0.000, 0.000, 0.000, 13:14:54.085, 1559988894085
243, -589.68, -606.49, -864.45, -489.12, -716.19, -564.09, -667.83, -610.92, 0.000, 0.000, 0.000, 13:14:54.085, 1559988894085
244, -574.75, -592.25, -841.63, -489.17, -707.37, -557.21, -654.30, -596.14, 0.000, 0.000, 0.000, 13:14:54.086, 1559988894086
245, -585.41, -601.64, -854.37, -495.29, -715.05, -564.45, -665.57, -606.76, 0.000, 0.000, 0.000, 13:14:54.086, 1559988894086
246, -596.59, -613.64, -870.35, -498.20, -722.45, -571.69, -674.26, -618.61, 0.000, 0.000, 0.000, 13:14:54.086, 1559988894086
247, -606.72, -624.51, -886.81, -499.20, -732.09, -577.01, -684.43, -629.36, 0.000, 0.000, 0.000, 13:14:54.086, 1559988894086
248, -589.80, -605.13, -863.36, -489.30, -717.71, -563.73, -667.53, -609.64, 0.008, -0.026, 1.018, 13:14:54.086, 1559988894086
249, -575.09, -592.08, -841.70, -490.11, -706.72, -557.47, -654.21, -595.63, 0.000, 0.000, 0.000, 13:14:54.086, 1559988894086
250, -586.78, -603.81, -855.78, -496.79, -718.52, -566.10, -665.01, -607.74, 0.000, 0.000, 0.000, 13:14:54.086, 1559988894086
251, -597.19, -612.82, -870.80, -498.02, -725.63, -570.86, -675.49, -617.65, 0.000, 0.000, 0.000, 13:14:54.087, 1559988894087
252, -606.94, -623.28, -887.23, -499.72, -731.77, -576.32, -683.92, -628.78, 0.000, 0.000, 0.000, 13:14:54.087, 1559988894087
253, -590.02, -607.34, -865.39, -490.37, -716.08, -564.43, -668.07, -611.19, 0.000, 0.000, 0.000, 13:14:54.087, 1559988894087
254, -574.73, -593.53, -842.57, -490.15, -706.83, -557.34, -655.73, -596.55, 0.000, 0.000, 0.000, 13:14:54.087, 1559988894087
255, -585.77, -603.36, -855.58, -495.00, -714.94, -565.19, -665.01, -607.63, 0.000, 0.000, 0.000, 13:14:54.087, 1559988894087
0, -596.48, -613.53, -870.60, -497.13, -723.12, -571.15, -672.09, -618.32, 0.000, 0.000, 0.000, 13:14:54.087, 1559988894087
1, -607.25, -623.37, -887.07, -499.83, -730.92, -576.61, -682.31, -628.75, 0.000, 0.000, 0.000, 13:14:54.087, 1559988894087
2, -589.19, -607.07, -865.21, -490.55, -716.35, -564.34, -666.89, -610.92, 0.010, -0.024, 1.026, 13:14:54.087, 1559988894087
3, -574.02, -592.84, -842.01, -489.86, -707.01, -557.47, -653.27, -595.74, 0.000, 0.000, 0.000, 13:14:54.087, 1559988894087
4, -585.93, -603.18, -854.95, -495.81, -717.16, -565.61, -665.01, -606.98, 0.000, 0.000, 0.000, 13:14:54.087, 1559988894087
5, -599.09, -613.22, -870.51, -498.89, -723.91, -571.94, -676.07, -618.58, 0.000, 0.000, 0.000, 13:14:54.087, 1559988894087
6, -609.93, -623.86, -887.45, -500.03, -732.22, -577.81, -685.35, -629.63, 0.000, 0.000, 0.000, 13:14:54.087, 1559988894087
7, -591.87, -606.78, -866.15, -490.15, -717.80, -564.94, -667.76, -611.52, 0.000, 0.000, 0.000, 13:14:54.088, 1559988894088
8, -575.49, -592.46, -842.71, -489.03, -707.28, -557.94, -656.09, -596.21, 0.000, 0.000, 0.000, 13:14:54.088, 1559988894088
9, -584.48, -602.58, -855.31, -496.34, -717.16, -565.39, -666.62, -606.76, 0.000, 0.000, 0.000, 13:14:54.088, 1559988894088
10, -596.52, -613.64, -870.85, -499.14, -726.19, -571.51, -675.27, -618.65, 0.000, 0.000, 0.000, 13:14:54.088, 1559988894088
11, -609.02, -624.40, -887.14, -499.36, -734.30, -576.65, -683.16, -629.38, 0.000, 0.000, 0.000, 13:14:54.088, 1559988894088
12, -593.10, -607.50, -865.95, -489.15, -717.96, -564.14, -667.45, -611.52, 0.006, -0.028, 1.016, 13:14:54.088, 1559988894088
13, -577.35, -592.72, -842.68, -488.70, -707.25, -557.36, -655.06, -596.81, 0.000, 0.000, 0.000, 13:14:54.088, 1559988894088
14, -586.55, -603.97, -856.25, -495.47, -716.87, -565.99, -663.51, -607.95, 0.000, 0.000, 0.000, 13:14:54.088, 1559988894088
15, -595.23, -614.63, -871.20, -498.56, -724.35, -571.29, -673.28, -618.52, 0.000, 0.000, 0.000, 13:14:54.088, 1559988894088
16, -606.72, -624.46, -887.52, -499.61, -733.34, -576.88, -684.79, -629.20, 0.000, 0.000, 0.000, 13:14:54.088, 1559988894088
17, -589.88, -607.43, -866.15, -489.97, -718.81, -564.69, -668.00, -612.06, 0.000, 0.000, 0.000, 13:14:54.088, 1559988894088
18, -573.01, -592.92, -842.57, -489.01, -707.70, -557.47, -656.00, -597.33, 0.000, 0.000, 0.000, 13:14:54.088, 1559988894088
19, -583.72, -604.10, -855.78, -495.90, -716.19, -564.96, -666.55, -607.92, 0.000, 0.000, 0.000, 13:14:54.091, 1559988894091
20, -594.58, -614.02, -871.07, -498.87, -724.60, -570.98, -676.01, -618.50, 0.000, 0.000, 0.000, 13:14:54.091, 1559988894091
21, -608.15, -624.73, -888.39, -500.10, -733.14, -576.90, -684.37, -629.60, 0.000, 0.000, 0.000, 13:14:54.091, 1559988894091
22, -593.13, -608.66, -867.74, -490.11, -717.58, -565.12, -669.52, -612.53, 0.004, -0.032, 1.010, 13:14:54.091, 1559988894091
23, -578.57, -593.68, -843.47, -488.52, -705.58, -557.47, -655.17, -597.13, 0.000, 0.000, 0.000, 13:14:54.091, 1559988894091
24, -588.05, -604.15, -855.76, -495.09, -716.71, -565.59, -665.17, -607.50, 0.000, 0.000, 0.000, 13:14:54.091, 1559988894091
25, -598.07, -614.34, -870.53, -498.00, -725.49, -571.76, -674.26, -618.07, 0.000, 0.000, 0.000, 13:14:54.092, 1559988894092
26, -609.44, -624.75, -887.52, -499.27, -733.94, -577.55, -684.50, -628.71, 0.000, 0.000, 0.000, 13:14:54.092, 1559988894092
27, -592.68, -607.32, -866.42, -489.61, -719.17, -564.31, -669.12, -610.25, 0.000, 0.000, 0.000, 13:14:54.092, 1559988894092
28, -575.83, -592.70, -842.48, -489.21, -707.81, -556.58, -653.83, -595.14, 0.000, 0.000, 0.000, 13:14:54.092, 1559988894092
29, -585.08, -603.41, -855.65, -496.61, -716.42, -564.69, -663.89, -607.21, 0.000, 0.000, 0.000, 13:14:54.092, 1559988894092
30, -593.48, -613.96, -871.05, -498.04, -725.02, -571.20, -673.73, -618.25, 0.000, 0.000, 0.000, 13:14:54.092, 1559988894092
31, -607.39, -624.42, -887.68, -499.47, -733.45, -576.99, -683.11, -628.84, 0.000, 0.000, 0.000, 13:14:54.093, 1559988894093
32, -592.37, -607.68, -866.49, -489.86, -718.88, -564.52, -669.19, -611.72, 0.002, -0.032, 1.016, 13:14:54.093, 1559988894093
33, -574.02, -593.93, -843.09, -489.79, -706.07, -558.17, -654.37, -597.13, 0.000, 0.000, 0.000, 13:14:54.093, 1559988894093
34, -585.15, -604.23, -855.83, -496.39, -715.32, -565.81, -664.45, -608.28, 0.000, 0.000, 0.000, 13:14:54.093, 1559988894093
35, -596.77, -614.61, -871.79, -499.58, -723.68, -572.18, -675.13, -619.84, 0.000, 0.000, 0.000, 13:14:54.093, 1559988894093
36, -608.41, -624.75, -888.41, -499.58, -733.90, -577.66, -682.33, -631.26, 0.000, 0.000, 0.000, 13:14:54.093, 1559988894093
37, -591.87, -608.77, -868.12, -489.21, -719.73, -564.76, -668.47, -613.64, 0.000, 0.000, 0.000, 13:14:54.094, 1559988894094
38, -574.86, -594.36, -843.87, -489.10, -707.86, -557.77, -655.98, -597.15, 0.000, 0.000, 0.000, 13:14:54.094, 1559988894094
39, -584.90, -604.55, -856.94, -496.14, -715.30, -566.44, -667.11, -608.24, 0.000, 0.000, 0.000, 13:14:54.094, 1559988894094
40, -595.38, -614.32, -872.32, -499.14, -725.49, -572.56, -674.75, -619.46, 0.000, 0.000, 0.000, 13:14:54.094, 1559988894094
41, -608.17, -625.51, -889.47, -500.97, -733.94, -578.53, -681.62, -630.70, 0.000, 0.000, 0.000, 13:14:54.094, 1559988894094
42, -592.25, -609.22, -868.61, -490.87, -719.59, -565.79, -668.27, -613.35, 0.004, -0.034, 1.022, 13:14:54.094, 1559988894094
43, -575.36, -593.60, -843.82, -489.53, -708.93, -558.17, -657.39, -597.26, 0.000, 0.000, 0.000, 13:14:54.094, 1559988894094
44, -585.82, -604.10, -856.83, -497.62, -717.18, -567.29, -664.38, -608.06, 0.000, 0.000, 0.000, 13:14:54.094, 1559988894094
45, -596.03, -613.89, -871.47, -499.47, -725.18, -572.29, -675.20, -618.00, 0.000, 0.000, 0.000, 13:14:54.094, 1559988894094
46, -608.66, -625.65, -888.62, -500.92, -733.09, -577.66, -683.23, -629.87, 0.000, 0.000, 0.000, 13:14:54.094, 1559988894094
47, -594.65, -610.36, -869.01, -491.02, -717.47, -565.90, -671.47, -613.49, 0.000, 0.000, 0.000, 13:14:54.094, 1559988894094
48, -577.95, -594.36, -844.18, -490.44, -706.78, -558.28, -656.40, -597.93, 0.000, 0.000, 0.000, 13:14:54.094, 1559988894094
49, -586.69, -603.79, -856.23, -496.70, -715.59, -565.92, -664.94, -608.66, 0.000, 0.000, 0.000, 13:14:54.095, 1559988894095
50, -597.91, -614.63, -871.58, -498.60, -724.69, -571.38, -675.63, -619.03, 0.000, 0.000, 0.000, 13:14:54.095, 1559988894095
51, -609.69, -624.78, -888.59, -500.72, -733.05, -576.92, -686.04, -629.74, 0.000, 0.000, 0.000, 13:14:54.095, 1559988894095
52, -593.19, -609.60, -869.64, -490.96, -721.22, -565.97, -670.13, -613.91, 0.004, -0.028, 1.022, 13:14:54.095, 1559988894095
53, -574.86, -593.17, -843.53, -487.78, -709.15, -557.72, -654.48, -596.70, 0.000, 0.000, 0.000, 13:14:54.095, 1559988894095
54, -585.59, -603.39, -855.78, -495.81, -717.25, -565.25, -662.77, -607.30, 0.000, 0.000, 0.000, 13:14:54.095, 1559988894095
55, -596.48, -615.05, -872.32, -499.07, -725.14, -572.32, -673.97, -619.39, 0.000, 0.000, 0.000, 13:14:54.095, 1559988894095
56, -610.45, -626.92, -890.34, -501.37, -733.83, -578.89, -683.05, -631.48, 0.000, 0.000, 0.000, 13:14:54.095, 1559988894095
57, -596.21, -610.43, -870.58, -491.69, -719.82, -566.50, -669.41, -614.63, 0.000, 0.000, 0.000, 13:14:54.095, 1559988894095
58, -576.99, -594.58, -844.38, -489.32, -706.11, -557.99, -655.38, -597.06, 0.000, 0.000, 0.000, 13:14:54.096, 1559988894096
59, -585.62, -604.86, -856.72, -495.94, -715.93, -566.26, -665.63, -607.34, 0.000, 0.000, 0.000, 13:14:54.096, 1559988894096
60, -597.71, -613.98, -871.52, -497.91, -724.49, -571.87, -675.63, -617.67, 0.000, 0.000, 0.000, 13:14:54.096, 1559988894096
61, -611.28, -625.51, -889.42, -499.72, -733.16, -578.28, -683.78, -629.76, 0.000, 0.000, 0.000, 13:14:54.096, 1559988894096
62, -595.85, -610.34, -870.91, -490.08, -721.09, -566.68, -671.18, -614.43, 0.000, -0.026, 1.016, 13:14:54.096, 1559988894096
63, -578.11, -594.24, -844.99, -489.99, -709.35, -558.66, -657.07, -597.37, 0.000, 0.000, 0.000, 13:14:54.096, 1559988894096
64, -587.27, -604.48, -857.10, -497.13, -718.09, -566.86, -664.67, -608.26, 0.000, 0.000, 0.000, 13:14:54.096, 1559988894096
65, -598.04, -614.54, -871.43, -498.82, -723.95, -572.03, -674.13, -618.32, 0.000, 0.000, 0.000, 13:14:54.096, 1559988894096
66, -607.50, -626.77, -889.78, -500.72, -733.74, -578.64, -686.11, -630.59, 0.000, 0.000, 0.000, 13:14:54.096, 1559988894096
67, -594.04, -611.19, -870.89, -490.60, -722.25, -566.77, -671.60, -614.65, 0.000, 0.000, 0.000, 13:14:54.096, 1559988894096
68, -576.56, -595.20, -845.30, -489.55, -709.78, -558.84, -655.31, -597.93, 0.000, 0.000, 0.000, 13:14:54.097, 1559988894097
69, -585.66, -605.04, -857.75, -497.57, -718.30, -567.40, -664.38, -609.00, 0.000, 0.000, 0.000, 13:14:54.097, 1559988894097
70, -596.03, -613.80, -871.18, -498.80, -724.08, -572.12, -675.56, -618.20, 0.000, 0.000, 0.000, 13:14:54.097, 1559988894097
71, -609.53, -624.33, -888.75, -500.19, -732.76, -578.17, -687.18, -629.92, 0.000, -0.024, 1.020, 13:14:54.097, 1559988894097
72, -595.47, -610.45, -871.16, -490.64, -721.78, -566.48, -672.39, -615.10, 0.000, 0.000, 0.000, 13:14:54.097, 1559988894097
73, -577.84, -594.94, -845.14, -488.48, -707.68, -558.44, -655.55, -598.45, 0.000, 0.000, 0.000, 13:14:54.561, 1559988894561
74, -586.31, -604.26, -856.25, -495.92, -715.84, -565.95, -665.93, -608.55, 0.000, 0.000, 0.000, 13:14:54.561, 1559988894561
75, -599.12, -614.27, -871.14, -498.53, -724.96, -571.78, -676.61, -618.94, 0.000, 0.000, 0.000, 13:14:54.562, 1559988894562
76, -610.81, -627.32, -890.76, -501.28, -735.31, -579.80, -685.35, -631.91, 0.000, 0.000, 0.000, 13:14:54.562, 1559988894562
77, -595.61, -612.42, -873.22, -492.50, -720.11, -568.43, -671.54, -616.62, 0.000, 0.000, 0.000, 13:14:54.562, 1559988894562
78, -577.28, -593.80, -845.37, -489.37, -706.63, -558.55, -658.10, -597.48, 0.000, 0.000, 0.000, 13:14:54.562, 1559988894562
79, -586.64, -604.10, -856.54, -496.21, -715.93, -566.26, -667.15, -607.50, 0.000, 0.000, 0.000, 13:14:54.562, 1559988894562
80, -597.31, -614.70, -871.92, -497.97, -724.00, -572.70, -675.47, -619.03, 0.000, 0.000, 0.000, 13:14:54.563, 1559988894563
81, -610.45, -626.27, -890.25, -501.53, -734.10, -579.38, -684.72, -631.53, 0.002, -0.032, 1.016, 13:14:54.563, 1559988894563
82, -596.75, -610.92, -871.45, -491.25, -722.14, -566.44, -674.26, -614.92, 0.000, 0.000, 0.000, 13:14:54.563, 1559988894563
83, -578.82, -593.57, -844.65, -489.17, -708.30, -557.54, -659.91, -596.81, 0.000, 0.000, 0.000, 13:14:54.563, 1559988894563
84, -587.34, -604.57, -857.32, -497.51, -718.03, -566.75, -668.14, -607.99, 0.000, 0.000, 0.000, 13:14:54.563, 1559988894563
85, -595.34, -615.16, -872.21, -498.91, -724.13, -572.52, -675.74, -618.38, 0.000, 0.000, 0.000, 13:14:54.563, 1559988894563
86, -609.04, -626.74, -890.58, -501.39, -735.08, -578.89, -684.16, -630.57, 0.000, 0.000, 0.000, 13:14:54.564, 1559988894564
87, -597.28, -612.71, -873.60, -492.03, -722.05, -568.05, -670.60, -616.08, 0.000, 0.000, 0.000, 13:14:54.564, 1559988894564
88, -576.54, -595.76, -846.55, -490.42, -709.33, -559.24, -656.56, -598.62, 0.000, 0.000, 0.000, 13:14:54.564, 1559988894564
89, -584.77, -604.41, -857.44, -496.95, -717.58, -567.06, -666.51, -608.55, 0.000, 0.000, 0.000, 13:14:54.565, 1559988894565
90, -597.28, -614.92, -872.63, -499.45, -725.07, -573.59, -676.45, -619.79, 0.000, 0.000, 0.000, 13:14:54.565, 1559988894565
91, -610.27, -625.67, -889.85, -500.84, -735.06, -579.18, -684.92, -631.35, -0.002, -0.034, 1.018, 13:14:54.565, 1559988894565
92, -598.18, -612.91, -873.37, -492.16, -724.93, -568.23, -672.36, -615.95, 0.000, 0.000, 0.000, 13:14:54.565, 1559988894565
93, -579.00, -595.32, -846.06, -489.86, -708.57, -558.15, -658.91, -597.24, 0.000, 0.000, 0.000, 13:14:54.566, 1559988894566
94, -586.26, -604.44, -857.23, -495.63, -715.41, -565.68, -667.18, -607.88, 0.000, 0.000, 0.000, 13:14:54.566, 1559988894566
95, -595.65, -614.58, -872.12, -499.36, -725.52, -572.27, -677.50, -618.63, 0.000, 0.000, 0.000, 13:14:54.566, 1559988894566
96, -609.29, -627.06, -889.96, -500.92, -734.10, -579.22, -685.95, -630.23, 0.000, 0.000, 0.000, 13:14:54.567, 1559988894567
97, -597.73, -612.80, -872.84, -491.11, -721.18, -567.49, -673.06, -615.92, 0.000, 0.000, 0.000, 13:14:54.567, 1559988894567
98, -579.40, -594.87, -845.79, -488.92, -707.34, -558.99, -656.36, -597.86, 0.000, 0.000, 0.000, 13:14:54.567, 1559988894567
99, -586.80, -604.26, -857.14, -496.03, -717.20, -566.93, -665.03, -607.83, 0.000, 0.000, 0.000, 13:14:54.568, 1559988894568
100, -597.40, -614.38, -871.76, -498.49, -725.65, -572.54, -675.27, -618.09, 0.000, 0.000, 0.000, 13:14:54.569, 1559988894569
101, -610.14, -625.96, -889.69, -499.85, -735.82, -578.40, -684.88, -630.01, 0.000, -0.026, 1.024, 13:14:54.570, 1559988894570
102, -598.78, -613.31, -875.12, -491.60, -721.09, -569.05, -672.68, -617.51, 0.000, 0.000, 0.000, 13:14:54.570, 1559988894570
103, -581.15, -596.08, -847.40, -489.66, -709.80, -559.93, -656.40, -599.23, 0.000, 0.000, 0.000, 13:14:54.570, 1559988894570
104, -588.10, -604.93, -857.17, -496.70, -717.69, -567.18, -665.88, -608.33, 0.000, 0.000, 0.000, 13:14:54.571, 1559988894571
105, -597.86, -614.43, -871.96, -498.60, -723.30, -572.76, -675.45, -619.57, 0.000, 0.000, 0.000, 13:14:54.571, 1559988894571
106, -610.31, -626.21, -890.43, -500.61, -733.72, -579.54, -685.06, -631.37, 0.000, 0.000, 0.000, 13:14:54.571, 1559988894571
107, -599.05, -613.02, -874.53, -491.92, -723.06, -568.43, -673.95, -616.48, 0.000, 0.000, 0.000, 13:14:54.572, 1559988894572
108, -578.19, -595.88, -847.47, -489.86, -707.81, -559.31, -658.50, -598.96, 0.000, 0.000, 0.000, 13:14:54.572, 1559988894572
109, -585.57, -603.79, -857.14, -496.59, -715.75, -566.04, -667.89, -608.06, 0.000, 0.000, 0.000, 13:14:54.572, 1559988894572
110, -597.66, -614.16, -871.85, -499.47, -724.00, -571.94, -677.57, -618.85, 0.000, 0.000, 0.000, 13:14:54.572, 1559988894572
111, -610.52, -626.65, -890.83, -501.06, -733.96, -579.49, -686.71, -632.15, 0.002, -0.026, 1.024, 13:14:54.572, 1559988894572
112, -596.59, -613.49, -874.98, -491.27, -724.44, -568.36, -674.44, -618.29, 0.000, 0.000, 0.000, 13:14:54.572, 1559988894572
113, -577.08, -594.98, -847.11, -489.10, -710.52, -558.32, -656.96, -599.23, 0.000, 0.000, 0.000, 13:14:54.573, 1559988894573
114, -585.88, -605.26, -858.20, -496.81, -718.07, -566.80, -666.04, -609.64, 0.000, 0.000, 0.000, 13:14:54.573, 1559988894573
115, -597.46, -615.10, -872.21, -498.15, -725.83, -572.63, -673.55, -619.46, 0.000, 0.000, 0.000, 13:14:54.573, 1559988894573
116, -610.65, -626.01, -889.53, -499.32, -735.64, -578.62, -683.87, -629.96, 0.000, 0.000, 0.000, 13:14:54.573, 1559988894573
117, -599.05, -614.38, -875.32, -491.85, -724.62, -569.66, -672.61, -617.15, 0.000, 0.000, 0.000, 13:14:54.573, 1559988894573
118, -578.73, -596.43, -847.51, -489.61, -709.33, -559.35, -658.17, -598.49, 0.000, 0.000, 0.000, 13:14:54.573, 1559988894573
119, -585.33, -604.28, -857.01, -496.48, -716.75, -566.42, -666.28, -607.72, 0.000, 0.000, 0.000, 13:14:54.574, 1559988894574
120, -595.50, -614.32, -872.21, -499.16, -723.70, -573.05, -675.00, -618.83, 0.000, 0.000, 0.000, 13:14:54.574, 1559988894574
121, -610.81, -625.65, -890.47, -500.75, -734.12, -579.45, -685.39, -631.35, 0.002, -0.024, 1.022, 13:14:54.574, 1559988894574
122, -599.61, -612.93, -875.52, -491.83, -724.22, -568.90, -676.07, -617.80, 0.000, 0.000, 0.000, 13:14:54.574, 1559988894574
123, -579.07, -595.43, -847.38, -489.55, -709.60, -559.60, -659.96, -599.23, 0.000, 0.000, 0.000, 13:14:54.574, 1559988894574
124, -587.05, -604.88, -857.23, -497.08, -716.89, -567.29, -666.10, -608.57, 0.000, 0.000, 0.000, 13:14:54.574, 1559988894574
125, -598.18, -614.78, -872.21, -499.43, -725.52, -573.46, -675.54, -619.30, 0.000, 0.000, 0.000, 13:14:54.575, 1559988894575
126, -611.52, -626.70, -890.87, -501.53, -736.53, -579.94, -685.51, -631.53, 0.000, 0.000, 0.000, 13:14:54.575, 1559988894575
127, -600.97, -613.85, -876.21, -491.34, -724.13, -569.46, -675.29, -618.25, 0.000, 0.000, 0.000, 13:14:54.575, 1559988894575
128, -579.29, -594.82, -846.51, -487.98, -708.28, -558.95, -656.56, -598.07, 0.000, 0.000, 0.000, 13:14:54.575, 1559988894575
129, -584.54, -604.15, -856.43, -495.58, -716.82, -566.19, -664.81, -607.57, 0.000, 0.000, 0.000, 13:14:54.575, 1559988894575
130, -598.38, -614.43, -871.85, -498.58, -725.43, -572.09, -675.65, -618.76, 0.000, 0.000, 0.000, 13:14:54.575, 1559988894575
131, -611.01, -626.85, -890.81, -500.59, -734.08, -579.40, -686.80, -631.50, 0.006, -0.028, 1.026, 13:14:54.576, 1559988894576
132, -599.38, -614.63, -876.68, -491.16, -722.92, -569.72, -676.94, -618.96, 0.000, 0.000, 0.000, 13:14:54.576, 1559988894576
133, -579.85, -595.03, -846.89, -487.65, -707.86, -558.39, -658.55, -598.56, 0.000, 0.000, 0.000, 13:14:54.576, 1559988894576
134, -587.98, -604.88, -858.11, -497.01, -717.42, -567.73, -667.11, -608.91, 0.000, 0.000, 0.000, 13:14:54.576, 1559988894576
135, -599.67, -615.95, -874.09, -499.92, -724.91, -574.73, -677.17, -620.69, 0.000, 0.000, 0.000, 13:14:54.577, 1559988894577
136, -610.63, -627.73, -891.95, -501.60, -735.13, -580.97, -686.91, -632.40, 0.000, 0.000, 0.000, 13:14:54.577, 1559988894577
137, -599.92, -614.61, -876.90, -491.72, -725.87, -569.48, -675.96, -618.00, 0.000, 0.000, 0.000, 13:14:54.585, 1559988894585
138, -580.45, -595.45, -847.49, -488.34, -711.08, -558.95, -659.42, -598.18, 0.000, 0.000, 0.000, 13:14:54.585, 1559988894585
139, -587.60, -605.69, -858.80, -497.42, -717.85, -567.31, -666.44, -609.42, 0.000, 0.000, 0.000, 13:14:54.585, 1559988894585
140, -596.61, -615.32, -872.97, -499.05, -725.14, -572.56, -675.69, -619.17, 0.000, 0.000, 0.000, 13:14:54.585, 1559988894585
141, -612.33, -626.72, -890.92, -500.75, -734.97, -579.20, -688.32, -631.68, 0.010, -0.024, 1.020, 13:14:54.585, 1559988894585
142, -600.61, -615.70, -877.46, -491.76, -724.51, -569.54, -676.83, -619.57, 0.000, 0.000, 0.000, 13:14:54.586, 1559988894586
143, -579.33, -596.70, -848.34, -488.70, -709.33, -558.99, -659.40, -599.18, 0.000, 0.000, 0.000, 13:14:54.586, 1559988894586
144, -587.36, -605.67, -858.42, -496.59, -716.75, -566.97, -666.77, -608.55, 0.000, 0.000, 0.000, 13:14:54.586, 1559988894586
145, -598.49, -614.83, -872.70, -498.24, -725.05, -572.47, -675.45, -618.29, 0.000, 0.000, 0.000, 13:14:54.586, 1559988894586
146, -611.68, -626.25, -890.87, -501.13, -735.53, -578.84, -684.57, -630.97, 0.000, 0.000, 0.000, 13:14:54.586, 1559988894586
147, -601.95, -616.60, -879.23, -493.08, -727.04, -570.39, -676.03, -620.46, 0.000, 0.000, 0.000, 13:14:54.586, 1559988894586
148, -580.79, -598.02, -849.97, -489.53, -708.97, -560.81, -660.52, -600.73, 0.000, 0.000, 0.000, 13:14:54.586, 1559988894586
149, -588.10, -605.37, -857.84, -496.30, -716.64, -567.13, -666.13, -609.02, 0.000, 0.000, 0.000, 13:14:54.586, 1559988894586
150, -598.56, -615.03, -872.25, -498.49, -725.02, -572.79, -675.76, -619.41, 0.000, 0.000, 0.000, 13:14:54.586, 1559988894586
151, -609.84, -627.12, -891.10, -501.17, -735.08, -580.14, -684.86, -631.39, 0.008, -0.026, 1.020, 13:14:54.591, 1559988894591
152, -599.76, -616.37, -879.05, -492.16, -723.57, -571.58, -675.98, -620.60, 0.000, 0.000, 0.000, 13:14:54.591, 1559988894591
153, -578.40, -596.17, -848.74, -487.92, -709.40, -560.16, -658.68, -599.67, 0.000, 0.000, 0.000, 13:14:54.591, 1559988894591
154, -587.96, -604.64, -857.75, -495.52, -719.15, -567.11, -665.34, -607.99, 0.000, 0.000, 0.000, 13:14:54.592, 1559988894592
155, -599.74, -615.30, -873.46, -498.91, -725.07, -573.75, -672.81, -619.26, 0.000, 0.000, 0.000, 13:14:54.592, 1559988894592
156, -612.21, -627.61, -891.75, -500.59, -735.06, -580.63, -686.02, -631.68, 0.000, 0.000, 0.000, 13:14:54.592, 1559988894592
157, -601.91, -617.60, -880.14, -492.92, -724.91, -572.41, -676.45, -620.62, 0.000, 0.000, 0.000, 13:14:54.593, 1559988894593
158, -581.73, -598.71, -850.91, -489.55, -711.88, -561.32, -660.45, -600.79, 0.000, 0.000, 0.000, 13:14:54.593, 1559988894593
159, -588.63, -606.22, -859.09, -497.10, -717.13, -568.29, -667.74, -609.09, 0.000, 0.000, 0.000, 13:14:54.593, 1559988894593
160, -598.94, -615.39, -873.19, -499.20, -724.24, -573.68, -676.30, -619.50, 0.000, 0.000, 0.000, 13:14:54.594, 1559988894594
161, -613.04, -627.77, -892.04, -502.24, -733.18, -580.72, -687.70, -632.29, 0.002, -0.020, 1.018, 13:14:54.594, 1559988894594
162, -602.42, -618.03, -880.48, -493.68, -725.47, -572.47, -678.35, -621.65, 0.000, 0.000, 0.000, 13:14:54.597, 1559988894597
163, -579.54, -598.00, -849.68, -489.08, -707.46, -560.43, -660.32, -600.05, 0.000, 0.000, 0.000, 13:14:54.597, 1559988894597
164, -586.53, -605.22, -858.24, -496.92, -717.25, -567.31, -666.55, -608.50, 0.000, 0.000, 0.000, 13:14:54.597, 1559988894597
165, -599.12, -614.96, -873.24, -499.72, -726.90, -573.70, -675.96, -619.41, 0.000, 0.000, 0.000, 13:14:54.597, 1559988894597
166, -612.17, -627.79, -892.04, -501.71, -737.94, -580.41, -684.84, -632.38, 0.000, 0.000, 0.000, 13:14:54.597, 1559988894597
167, -603.54, -618.47, -880.64, -492.79, -727.88, -571.56, -675.34, -621.09, 0.000, 0.000, 0.000, 13:14:54.597, 1559988894597
168, -581.41, -598.18, -850.06, -488.59, -710.16, -560.56, -660.16, -600.08, 0.000, 0.000, 0.000, 13:14:54.597, 1559988894597
169, -588.90, -605.87, -858.69, -496.12, -717.87, -567.62, -665.59, -608.79, 0.000, 0.000, 0.000, 13:14:54.597, 1559988894597
170, -599.61, -615.10, -872.84, -497.93, -726.19, -572.79, -672.88, -619.05, 0.000, 0.000, 0.000, 13:14:54.597, 1559988894597
171, -612.30, -627.61, -891.86, -500.75, -733.96, -580.18, -685.68, -631.68, 0.002, -0.026, 1.022, 13:14:54.597, 1559988894597
172, -604.08, -617.31, -880.73, -492.48, -726.14, -571.71, -676.97, -621.09, 0.000, 0.000, 0.000, 13:14:54.597, 1559988894597
173, -581.35, -597.22, -850.06, -488.41, -711.25, -560.07, -660.96, -599.97, 0.000, 0.000, 0.000, 13:14:54.597, 1559988894597
174, -586.87, -604.26, -857.57, -495.78, -719.08, -566.53, -667.33, -608.30, 0.000, 0.000, 0.000, 13:14:54.598, 1559988894598
175, -596.08, -614.61, -872.88, -499.09, -725.34, -572.58, -675.76, -619.34, 0.000, 0.000, 0.000, 13:14:54.598, 1559988894598
176, -611.19, -627.53, -891.75, -501.08, -735.62, -580.25, -686.02, -631.84, 0.000, 0.000, 0.000, 13:14:54.598, 1559988894598
