%OpenBCI Raw EEG Data
%Number of channels = 8
%Sample Rate = 250.0 Hz
%First Column = SampleIndex
%Last Column = Timestamp 
%Other Columns = EEG data in microvolts followed by Accel Data (in G) interleaved with Aux Data
0, -20.09, -25.21, -22.60, -21.59, 5787.27, -14.19, -27.18, -23.54, 0.002, 0.060, -1.034, 19:04:14.868, 1560787454868
1, -20.05, -25.12, -22.62, -21.61, 5795.43, -14.28, -27.00, -23.69, 0.000, 0.000, 0.000, 19:04:14.869, 1560787454869
2, -20.14, -25.12, -22.66, -21.52, 5793.75, -14.19, -26.91, -23.54, 0.000, 0.000, 0.000, 19:04:14.869, 1560787454869
3, -20.16, -25.21, -22.66, -21.35, 5779.45, -14.28, -26.73, -23.34, 0.000, 0.000, 0.000, 19:04:14.869, 1560787454869
4, -20.16, -25.57, -22.60, -21.41, 5738.99, -14.06, -26.69, -23.38, 0.000, 0.000, 0.000, 19:04:14.869, 1560787454869
5, -20.16, -25.50, -22.71, -21.64, 5752.18, -14.08, -26.91, -23.74, 0.000, 0.000, 0.000, 19:04:14.869, 1560787454869
6, -20.12, -25.44, -22.75, -21.79, 5749.40, -14.06, -26.98, -23.56, 0.000, 0.000, 0.000, 19:04:14.869, 1560787454869
7, -20.18, -25.28, -22.73, -21.66, 5775.65, -14.01, -26.89, -23.27, 0.004, 0.060, -1.036, 19:04:14.869, 1560787454869
8, -20.07, -25.30, -22.69, -21.55, 5784.47, -14.01, -26.89, -23.36, 0.000, 0.000, 0.000, 19:04:14.869, 1560787454869
9, -20.16, -25.19, -22.71, -21.52, 5752.47, -13.90, -26.89, -23.56, 0.000, 0.000, 0.000, 19:04:14.869, 1560787454869
10, -20.14, -25.30, -22.66, -21.55, 5770.17, -14.01, -26.96, -23.63, 0.000, 0.000, 0.000, 19:04:14.869, 1560787454869
11, -20.12, -25.12, -22.66, -21.55, 5742.72, -14.06, -26.96, -23.58, 0.000, 0.000, 0.000, 19:04:14.869, 1560787454869
12, -20.14, -25.39, -22.69, -21.41, 5735.99, -13.90, -27.07, -23.38, 0.000, 0.000, 0.000, 19:04:14.869, 1560787454869
13, -20.14, -25.28, -22.62, -21.39, 5768.29, -13.99, -27.09, -23.45, 0.000, 0.000, 0.000, 19:04:14.869, 1560787454869
14, -20.09, -25.15, -22.66, -21.48, 5754.93, -13.95, -26.98, -23.45, 0.000, 0.000, 0.000, 19:04:14.869, 1560787454869
15, -20.14, -25.10, -22.66, -21.26, 5753.03, -14.17, -26.76, -23.34, 0.000, 0.000, 0.000, 19:04:14.869, 1560787454869
16, -20.09, -25.19, -22.71, -21.37, 5755.10, -14.10, -26.76, -23.49, -0.002, 0.058, -1.040, 19:04:14.869, 1560787454869
17, -20.09, -25.19, -22.71, -21.39, 5736.26, -14.13, -26.93, -23.40, 0.000, 0.000, 0.000, 19:04:14.870, 1560787454870
18, -20.09, -25.30, -22.62, -21.41, 5761.36, -14.01, -26.71, -23.51, 0.000, 0.000, 0.000, 19:04:14.870, 1560787454870
19, -20.09, -25.30, -22.66, -21.66, 5794.38, -14.15, -26.76, -23.54, 0.000, 0.000, 0.000, 19:04:14.870, 1560787454870
20, -20.09, -25.39, -22.66, -21.59, 5767.22, -14.22, -27.02, -23.49, 0.000, 0.000, 0.000, 19:04:14.870, 1560787454870
21, -20.14, -25.53, -22.69, -21.77, 5737.96, -14.13, -27.07, -23.36, 0.000, 0.000, 0.000, 19:04:14.870, 1560787454870
22, -20.12, -25.17, -22.75, -21.79, 5744.91, -13.88, -26.98, -23.49, 0.000, 0.000, 0.000, 19:04:14.870, 1560787454870
23, -20.12, -25.24, -22.73, -21.59, 5743.84, -13.99, -26.80, -23.36, 0.000, 0.000, 0.000, 19:04:14.870, 1560787454870
24, -20.16, -25.50, -22.66, -21.48, 5725.65, -14.17, -27.00, -23.63, 0.000, 0.000, 0.000, 19:04:14.870, 1560787454870
25, -20.12, -25.30, -22.66, -21.39, 5734.14, -14.24, -27.02, -23.56, 0.000, 0.000, 0.000, 19:04:14.870, 1560787454870
26, -20.16, -25.24, -22.73, -21.55, 5726.20, -13.95, -27.02, -23.60, 0.000, 0.058, -1.034, 19:04:14.870, 1560787454870
27, -20.12, -25.26, -22.71, -21.52, 5728.48, -13.99, -27.09, -23.47, 0.000, 0.000, 0.000, 19:04:14.870, 1560787454870
28, -20.09, -25.19, -22.64, -21.55, 5743.06, -13.95, -26.89, -23.47, 0.000, 0.000, 0.000, 19:04:14.870, 1560787454870
29, -20.07, -25.37, -22.62, -21.52, 5721.11, -13.99, -26.91, -23.60, 0.000, 0.000, 0.000, 19:04:14.870, 1560787454870
30, -20.09, -25.44, -22.69, -21.61, 5737.89, -14.15, -26.87, -23.65, 0.000, 0.000, 0.000, 19:04:14.870, 1560787454870
31, -20.09, -25.44, -22.66, -21.32, 5740.96, -14.28, -26.96, -23.38, 0.000, 0.000, 0.000, 19:04:14.870, 1560787454870
32, -20.09, -25.50, -22.66, -21.32, 5726.65, -14.22, -26.98, -23.27, 0.000, 0.000, 0.000, 19:04:14.870, 1560787454870
33, -20.16, -25.37, -22.62, -21.32, 5734.14, -14.33, -26.78, -23.56, 0.000, 0.000, 0.000, 19:04:14.870, 1560787454870
34, -20.14, -25.39, -22.71, -21.59, 5755.95, -14.26, -26.76, -23.49, 0.000, 0.000, 0.000, 19:04:14.870, 1560787454870
35, -20.16, -25.59, -22.78, -21.50, 5750.19, -14.10, -26.64, -23.49, 0.000, 0.000, 0.000, 19:04:14.870, 1560787454870
36, -20.14, -25.41, -22.73, -21.44, 5709.13, -14.22, -26.91, -23.51, -0.004, 0.062, -1.034, 19:04:14.870, 1560787454870
37, -20.12, -25.37, -22.78, -21.44, 5726.38, -14.13, -26.91, -23.42, 0.000, 0.000, 0.000, 19:04:14.870, 1560787454870
38, -20.14, -25.32, -22.71, -21.57, 5721.00, -13.70, -26.87, -23.45, 0.000, 0.000, 0.000, 19:04:14.870, 1560787454870
39, -20.09, -25.28, -22.69, -21.52, 5727.39, -13.77, -26.87, -23.56, 0.000, 0.000, 0.000, 19:04:14.871, 1560787454871
40, -20.12, -25.39, -22.66, -21.84, 5719.52, -13.99, -26.80, -23.40, 0.000, 0.000, 0.000, 19:04:14.871, 1560787454871
41, -20.09, -25.64, -22.64, -21.77, 5736.96, -14.08, -26.76, -23.42, 0.000, 0.000, 0.000, 19:04:14.871, 1560787454871
42, -20.07, -25.50, -22.64, -21.61, 5702.78, -14.10, -26.89, -23.42, 0.000, 0.000, 0.000, 19:04:14.871, 1560787454871
43, -20.14, -25.35, -22.60, -21.50, 5691.83, -14.22, -26.84, -23.45, 0.000, 0.000, 0.000, 19:04:14.871, 1560787454871
44, -20.14, -25.44, -22.66, -21.64, 5728.82, -14.33, -26.91, -23.45, 0.000, 0.000, 0.000, 19:04:14.871, 1560787454871
45, -20.14, -25.35, -22.69, -21.66, 5743.55, -14.22, -27.22, -23.60, 0.000, 0.000, 0.000, 19:04:14.871, 1560787454871
46, -20.14, -25.26, -22.66, -21.75, 5720.91, -14.04, -27.25, -23.67, 0.000, 0.062, -1.034, 19:04:14.871, 1560787454871
47, -20.09, -25.32, -22.66, -21.59, 5695.96, -13.90, -26.98, -23.58, 0.000, 0.000, 0.000, 19:04:14.871, 1560787454871
48, -20.14, -25.62, -22.66, -21.48, 5702.06, -14.06, -26.93, -23.60, 0.000, 0.000, 0.000, 19:04:14.871, 1560787454871
49, -20.05, -25.62, -22.69, -21.50, 5710.74, -13.97, -27.14, -23.63, 0.000, 0.000, 0.000, 19:04:14.872, 1560787454872
50, -20.03, -25.39, -22.71, -21.46, 5726.99, -14.17, -26.87, -23.51, 0.000, 0.000, 0.000, 19:04:14.872, 1560787454872
51, -20.16, -25.39, -22.75, -21.48, 5725.20, -14.17, -27.02, -23.25, 0.000, 0.000, 0.000, 19:04:14.872, 1560787454872
52, -20.23, -25.53, -22.66, -21.37, 5691.29, -13.99, -27.07, -23.38, 0.000, 0.000, 0.000, 19:04:14.872, 1560787454872
53, -20.16, -25.44, -22.62, -21.39, 5688.07, -13.81, -26.98, -23.45, 0.000, 0.000, 0.000, 19:04:14.872, 1560787454872
54, -20.09, -25.28, -22.62, -21.59, 5688.83, -13.72, -27.09, -23.29, 0.000, 0.000, 0.000, 19:04:14.872, 1560787454872
55, -20.14, -25.12, -22.66, -21.28, 5684.70, -13.90, -27.25, -23.54, 0.000, 0.000, 0.000, 19:04:14.873, 1560787454873
56, -20.16, -25.26, -22.69, -21.48, 5704.01, -14.28, -26.98, -23.67, 0.002, 0.064, -1.034, 19:04:14.873, 1560787454873
57, -20.14, -25.35, -22.69, -21.48, 5677.88, -14.22, -26.96, -23.69, 0.000, 0.000, 0.000, 19:04:14.873, 1560787454873
58, -20.14, -25.39, -22.66, -21.59, 5693.95, -14.28, -26.98, -23.56, 0.000, 0.000, 0.000, 19:04:14.873, 1560787454873
59, -20.12, -25.39, -22.62, -21.59, 5689.06, -14.19, -26.87, -23.63, 0.000, 0.000, 0.000, 19:04:14.873, 1560787454873
60, -20.14, -25.21, -22.71, -21.50, 5686.57, -13.99, -27.05, -23.76, 0.000, 0.000, 0.000, 19:04:14.873, 1560787454873
61, -20.14, -25.24, -22.78, -21.70, 5678.71, -13.95, -26.93, -23.63, 0.000, 0.000, 0.000, 19:04:14.873, 1560787454873
62, -20.16, -25.06, -22.69, -21.57, 5655.77, -14.04, -27.02, -23.80, 0.000, 0.000, 0.000, 19:04:14.873, 1560787454873
63, -20.16, -25.12, -22.62, -21.48, 5712.84, -13.84, -26.87, -23.74, 0.000, 0.000, 0.000, 19:04:14.873, 1560787454873
64, -20.14, -25.26, -22.73, -21.64, 5695.18, -13.88, -26.96, -23.63, 0.000, 0.000, 0.000, 19:04:14.873, 1560787454873
65, -20.12, -25.35, -22.66, -21.61, 5691.49, -14.04, -26.89, -23.58, 0.000, 0.000, 0.000, 19:04:14.873, 1560787454873
66, -20.07, -25.08, -22.64, -21.48, 5697.73, -14.13, -26.80, -23.34, -0.004, 0.060, -1.038, 19:04:14.873, 1560787454873
67, -20.05, -25.35, -22.71, -21.39, 5670.55, -14.17, -26.78, -23.36, 0.000, 0.000, 0.000, 19:04:14.873, 1560787454873
68, -20.12, -25.35, -22.73, -21.57, 5706.67, -14.06, -26.64, -23.56, 0.000, 0.000, 0.000, 19:04:14.873, 1560787454873
69, -20.14, -25.30, -22.71, -21.57, 5684.92, -13.97, -26.80, -23.47, 0.000, 0.000, 0.000, 19:04:14.874, 1560787454874
70, -20.16, -25.24, -22.71, -21.44, 5670.95, -14.13, -26.91, -23.56, 0.000, 0.000, 0.000, 19:04:14.874, 1560787454874
71, -20.16, -25.26, -22.71, -21.41, 5677.16, -14.10, -27.00, -23.78, 0.000, 0.000, 0.000, 19:04:14.874, 1560787454874
72, -20.05, -25.48, -22.73, -21.66, 5691.04, -14.13, -26.87, -23.56, 0.000, 0.000, 0.000, 19:04:14.874, 1560787454874
73, -20.12, -25.50, -22.71, -21.26, 5705.80, -14.13, -26.80, -23.27, 0.000, 0.000, 0.000, 19:04:14.874, 1560787454874
74, -20.09, -25.08, -22.62, -21.55, 5656.29, -14.15, -26.87, -23.36, 0.000, 0.000, 0.000, 19:04:14.875, 1560787454875
75, -20.09, -25.32, -22.55, -21.59, 5661.61, -14.13, -26.78, -23.58, 0.000, 0.000, 0.000, 19:04:14.875, 1560787454875
76, -20.14, -25.44, -22.66, -21.55, 5658.97, -14.06, -26.64, -23.31, 0.000, 0.062, -1.040, 19:04:14.875, 1560787454875
77, -20.16, -25.35, -22.66, -21.77, 5638.88, -14.08, -26.93, -23.60, 0.000, 0.000, 0.000, 19:04:14.875, 1560787454875
78, -20.16, -25.24, -22.69, -21.30, 5654.05, -14.24, -26.98, -23.85, 0.000, 0.000, 0.000, 19:04:14.875, 1560787454875
79, -20.09, -25.24, -22.66, -21.37, 5689.14, -14.10, -27.09, -23.67, 0.000, 0.000, 0.000, 19:04:14.875, 1560787454875
80, -20.16, -25.41, -22.71, -21.48, 5666.26, -14.04, -27.02, -23.63, 0.000, 0.000, 0.000, 19:04:14.875, 1560787454875
81, -20.09, -25.35, -22.64, -21.66, 5659.10, -14.28, -26.96, -23.67, 0.000, 0.000, 0.000, 19:04:14.875, 1560787454875
82, -20.09, -25.21, -22.69, -21.64, 5658.52, -14.17, -26.91, -23.34, 0.000, 0.000, 0.000, 19:04:14.875, 1560787454875
83, -20.09, -25.35, -22.71, -21.73, 5669.45, -14.08, -26.87, -23.31, 0.000, 0.000, 0.000, 19:04:14.875, 1560787454875
84, -20.09, -25.48, -22.71, -21.55, 5647.37, -14.22, -26.89, -23.45, 0.000, 0.000, 0.000, 19:04:14.875, 1560787454875
85, -20.16, -25.24, -22.73, -21.23, 5654.72, -14.10, -26.93, -23.40, 0.000, 0.000, 0.000, 19:04:14.875, 1560787454875
86, -20.18, -25.17, -22.62, -21.50, 5651.28, -13.99, -26.93, -23.16, 0.002, 0.064, -1.034, 19:04:14.875, 1560787454875
87, -20.21, -25.08, -22.71, -21.59, 5632.91, -14.01, -27.07, -23.56, 0.000, 0.000, 0.000, 19:04:14.875, 1560787454875
88, -20.16, -25.01, -22.69, -21.48, 5641.47, -14.01, -27.07, -23.60, 0.000, 0.000, 0.000, 19:04:14.876, 1560787454876
89, -20.16, -25.15, -22.66, -21.48, 5643.21, -13.95, -27.07, -23.60, 0.000, 0.000, 0.000, 19:04:14.876, 1560787454876
90, -20.14, -25.41, -22.66, -21.55, 5652.73, -13.93, -26.96, -23.51, 0.000, 0.000, 0.000, 19:04:14.876, 1560787454876
91, -20.05, -25.30, -22.62, -21.59, 5671.71, -14.10, -26.96, -23.45, 0.000, 0.000, 0.000, 19:04:14.876, 1560787454876
92, -20.09, -25.35, -22.69, -21.61, 5652.82, -14.10, -26.91, -23.47, 0.000, 0.000, 0.000, 19:04:14.876, 1560787454876
93, -20.14, -25.39, -22.60, -21.59, 5629.67, -14.06, -27.02, -23.49, 0.000, 0.000, 0.000, 19:04:14.876, 1560787454876
94, -20.09, -25.35, -22.64, -21.50, 5641.60, -14.06, -27.00, -23.56, 0.000, 0.000, 0.000, 19:04:14.876, 1560787454876
95, -20.12, -25.44, -22.66, -21.37, 5651.66, -13.90, -26.73, -23.83, 0.000, 0.000, 0.000, 19:04:14.876, 1560787454876
96, -20.12, -25.53, -22.64, -21.50, 5649.76, -14.01, -26.80, -23.80, 0.006, 0.064, -1.032, 19:04:14.876, 1560787454876
97, -20.16, -25.62, -22.64, -21.50, 5637.29, -14.13, -26.80, -23.56, 0.000, 0.000, 0.000, 19:04:14.876, 1560787454876
98, -20.14, -25.50, -22.66, -21.61, 5651.86, -13.99, -26.80, -23.42, 0.000, 0.000, 0.000, 19:04:14.876, 1560787454876
99, -20.12, -25.12, -22.71, -21.48, 5656.71, -13.93, -26.64, -23.60, 0.000, 0.000, 0.000, 19:04:14.876, 1560787454876
100, -20.16, -25.08, -22.69, -21.59, 5662.01, -13.81, -26.91, -23.47, 0.000, 0.000, 0.000, 19:04:14.876, 1560787454876
101, -20.16, -25.10, -22.69, -21.39, 5632.75, -13.90, -26.87, -23.49, 0.000, 0.000, 0.000, 19:04:14.876, 1560787454876
102, -20.09, -25.24, -22.71, -21.61, 5576.16, -13.95, -26.91, -23.22, 0.000, 0.000, 0.000, 19:04:14.876, 1560787454876
103, -20.09, -25.46, -22.71, -21.61, 5602.06, -13.81, -27.09, -23.31, 0.000, 0.000, 0.000, 19:04:14.876, 1560787454876
104, -20.09, -25.32, -22.62, -21.66, 5634.90, -14.01, -26.93, -23.40, 0.000, 0.000, 0.000, 19:04:14.876, 1560787454876
105, -20.16, -25.21, -22.64, -21.59, 5643.28, -14.01, -26.87, -23.56, 0.000, 0.000, 0.000, 19:04:14.876, 1560787454876
106, -20.14, -25.21, -22.73, -21.39, 5627.41, -14.08, -26.87, -23.49, -0.002, 0.062, -1.034, 19:04:14.876, 1560787454876
107, -20.05, -25.19, -22.71, -21.73, 5596.34, -13.97, -26.84, -23.51, 0.000, 0.000, 0.000, 19:04:14.876, 1560787454876
108, -20.05, -25.64, -22.69, -21.73, 5621.28, -13.88, -26.76, -23.51, 0.000, 0.000, 0.000, 19:04:14.876, 1560787454876
109, -20.09, -25.48, -22.66, -21.37, 5619.23, -14.06, -26.67, -23.63, 0.000, 0.000, 0.000, 19:04:14.876, 1560787454876
110, -20.09, -25.50, -22.71, -21.35, 5641.49, -14.01, -26.78, -23.34, 0.000, 0.000, 0.000, 19:04:14.876, 1560787454876
111, -20.09, -25.57, -22.71, -21.26, 5632.33, -14.10, -26.84, -23.34, 0.000, 0.000, 0.000, 19:04:14.876, 1560787454876
112, -20.09, -25.35, -22.71, -21.26, 5587.62, -14.35, -27.14, -23.54, 0.000, 0.000, 0.000, 19:04:14.876, 1560787454876
113, -20.09, -25.30, -22.73, -21.46, 5607.00, -14.33, -26.87, -23.45, 0.000, 0.000, 0.000, 19:04:14.876, 1560787454876
114, -20.16, -25.35, -22.66, -21.28, 5612.17, -13.90, -26.76, -23.63, 0.000, 0.000, 0.000, 19:04:14.876, 1560787454876
115, -20.18, -25.41, -22.62, -21.37, 5632.35, -13.86, -26.96, -23.67, 0.000, 0.000, 0.000, 19:04:14.876, 1560787454876
116, -20.16, -25.35, -22.60, -21.61, 5609.46, -13.99, -26.98, -23.47, -0.002, 0.056, -1.036, 19:04:14.876, 1560787454876
117, -20.12, -25.37, -22.66, -21.70, 5605.19, -14.10, -26.96, -23.40, 0.000, 0.000, 0.000, 19:04:14.877, 1560787454877
118, -20.14, -25.21, -22.73, -21.44, 5610.53, -13.86, -26.91, -23.47, 0.000, 0.000, 0.000, 19:04:14.877, 1560787454877
119, -20.09, -25.44, -22.73, -21.52, 5602.80, -13.99, -26.87, -23.51, 0.000, 0.000, 0.000, 19:04:14.877, 1560787454877
120, -20.12, -25.21, -22.66, -21.41, 5623.21, -13.86, -26.84, -23.47, 0.000, 0.000, 0.000, 19:04:15.349, 1560787455349
121, -20.14, -25.35, -22.64, -21.37, 5592.88, -14.13, -26.73, -23.58, 0.000, 0.000, 0.000, 19:04:15.349, 1560787455349
122, -20.14, -25.26, -22.71, -21.59, 5591.20, -14.17, -26.87, -23.63, 0.000, 0.000, 0.000, 19:04:15.349, 1560787455349
123, -20.14, -25.26, -22.73, -21.46, 5613.57, -14.17, -26.89, -23.83, 0.000, 0.000, 0.000, 19:04:15.349, 1560787455349
124, -20.18, -25.35, -22.73, -21.61, 5608.28, -13.99, -26.89, -23.42, 0.000, 0.000, 0.000, 19:04:15.349, 1560787455349
125, -20.14, -25.41, -22.69, -21.79, 5605.08, -13.95, -26.87, -23.40, 0.000, 0.000, 0.000, 19:04:15.349, 1560787455349
126, -20.09, -25.39, -22.71, -21.59, 5602.00, -14.06, -26.93, -23.74, 0.000, 0.056, -1.040, 19:04:15.349, 1560787455349
127, -20.09, -25.46, -22.66, -21.46, 5582.06, -14.17, -27.09, -23.74, 0.000, 0.000, 0.000, 19:04:15.349, 1560787455349
128, -20.05, -25.73, -22.66, -21.55, 5610.82, -14.01, -27.00, -23.65, 0.000, 0.000, 0.000, 19:04:15.349, 1560787455349
129, -20.09, -25.53, -22.66, -21.41, 5623.07, -14.13, -26.80, -23.67, 0.000, 0.000, 0.000, 19:04:15.349, 1560787455349
130, -20.05, -25.46, -22.73, -21.32, 5602.71, -13.93, -26.69, -23.27, 0.000, 0.000, 0.000, 19:04:15.349, 1560787455349
131, -20.09, -25.46, -22.71, -21.73, 5575.24, -13.99, -26.84, -23.56, 0.000, 0.000, 0.000, 19:04:15.349, 1560787455349
132, -20.09, -25.39, -22.71, -21.75, 5601.15, -14.08, -26.62, -23.58, 0.000, 0.000, 0.000, 19:04:15.349, 1560787455349
133, -20.12, -25.50, -22.66, -21.41, 5618.87, -13.88, -26.80, -23.60, 0.000, 0.000, 0.000, 19:04:15.349, 1560787455349
134, -20.03, -25.53, -22.73, -21.44, 5599.98, -13.77, -27.14, -23.54, 0.000, 0.000, 0.000, 19:04:15.349, 1560787455349
135, -20.12, -25.41, -22.71, -21.30, 5583.56, -14.06, -27.25, -23.60, 0.002, 0.062, -1.046, 19:04:15.349, 1560787455349
136, -20.16, -25.26, -22.71, -21.48, 5590.71, -14.13, -27.29, -23.47, 0.000, 0.000, 0.000, 19:04:15.349, 1560787455349
137, -20.09, -25.21, -22.71, -21.50, 5581.59, -13.90, -27.11, -23.56, 0.000, 0.000, 0.000, 19:04:15.349, 1560787455349
138, -20.12, -25.03, -22.71, -21.46, 5593.50, -13.95, -27.02, -23.49, 0.000, 0.000, 0.000, 19:04:15.349, 1560787455349
139, -20.09, -25.15, -22.71, -21.59, 5579.46, -14.04, -26.80, -23.63, 0.000, 0.000, 0.000, 19:04:15.350, 1560787455350
140, -20.05, -25.39, -22.73, -21.41, 5616.46, -13.99, -26.73, -23.72, 0.000, 0.000, 0.000, 19:04:15.350, 1560787455350
141, -20.07, -25.37, -22.66, -21.44, 5645.49, -14.04, -26.98, -23.63, 0.000, 0.000, 0.000, 19:04:15.350, 1560787455350
142, -20.09, -25.32, -22.66, -21.19, 5592.36, -14.01, -26.98, -23.42, 0.000, 0.000, 0.000, 19:04:15.350, 1560787455350
143, -20.16, -25.10, -22.66, -21.41, 5582.33, -13.95, -26.91, -23.74, 0.000, 0.000, 0.000, 19:04:15.350, 1560787455350
144, -20.16, -25.24, -22.64, -21.55, 5597.61, -13.88, -27.02, -23.83, 0.000, 0.000, 0.000, 19:04:15.350, 1560787455350
145, -20.05, -25.55, -22.73, -21.46, 5584.85, -13.90, -27.02, -23.42, -0.002, 0.064, -1.038, 19:04:15.350, 1560787455350
146, -20.05, -25.37, -22.73, -21.32, 5590.33, -14.10, -27.14, -23.58, 0.000, 0.000, 0.000, 19:04:15.350, 1560787455350
147, -20.07, -25.19, -22.66, -21.39, 5560.64, -14.10, -26.91, -23.60, 0.000, 0.000, 0.000, 19:04:15.350, 1560787455350
148, -20.12, -25.24, -22.73, -21.39, 5591.47, -14.24, -26.69, -23.31, 0.000, 0.000, 0.000, 19:04:15.350, 1560787455350
149, -20.09, -25.30, -22.71, -21.41, 5626.63, -14.10, -26.89, -23.31, 0.000, 0.000, 0.000, 19:04:15.350, 1560787455350
150, -20.09, -25.39, -22.66, -21.55, 5594.33, -13.93, -27.09, -23.34, 0.000, 0.000, 0.000, 19:04:15.350, 1560787455350
151, -20.09, -25.41, -22.71, -21.70, 5575.40, -13.99, -26.91, -23.40, 0.000, 0.000, 0.000, 19:04:15.350, 1560787455350
152, -20.16, -25.44, -22.71, -21.61, 5561.63, -14.08, -26.91, -23.67, 0.000, 0.000, 0.000, 19:04:15.350, 1560787455350
153, -20.14, -25.46, -22.62, -21.41, 5573.83, -13.93, -27.02, -23.51, 0.000, 0.000, 0.000, 19:04:15.350, 1560787455350
154, -20.09, -25.44, -22.66, -21.44, 5594.40, -14.01, -27.02, -23.51, 0.000, 0.000, 0.000, 19:04:15.350, 1560787455350
155, -20.07, -25.46, -22.64, -21.52, 5584.23, -14.01, -26.87, -23.60, -0.002, 0.060, -1.038, 19:04:15.350, 1560787455350
156, -20.09, -25.39, -22.66, -21.39, 5569.81, -13.90, -26.87, -23.31, 0.000, 0.000, 0.000, 19:04:15.350, 1560787455350
157, -20.12, -25.08, -22.66, -21.37, 5580.90, -14.01, -27.05, -23.56, 0.000, 0.000, 0.000, 19:04:15.350, 1560787455350
158, -20.14, -25.08, -22.66, -21.48, 5596.52, -14.22, -26.91, -23.34, 0.000, 0.000, 0.000, 19:04:15.350, 1560787455350
159, -20.18, -25.15, -22.62, -21.61, 5585.41, -14.22, -26.87, -23.51, 0.000, 0.000, 0.000, 19:04:15.350, 1560787455350
160, -20.14, -25.17, -22.64, -21.73, 5614.67, -13.97, -26.89, -23.49, 0.000, 0.000, 0.000, 19:04:15.350, 1560787455350
161, -20.14, -25.35, -22.69, -21.50, 5597.95, -13.90, -26.96, -23.54, 0.000, 0.000, 0.000, 19:04:15.350, 1560787455350
162, -20.23, -25.48, -22.71, -21.37, 5566.61, -14.17, -26.96, -23.42, 0.000, 0.000, 0.000, 19:04:15.350, 1560787455350
163, -20.23, -25.28, -22.71, -21.55, 5605.35, -13.97, -26.89, -23.36, 0.000, 0.000, 0.000, 19:04:15.350, 1560787455350
164, -20.16, -25.17, -22.71, -21.46, 5638.14, -13.95, -26.96, -23.65, 0.000, 0.000, 0.000, 19:04:15.350, 1560787455350
165, -20.21, -25.30, -22.69, -21.41, 5622.49, -13.99, -26.96, -23.45, -0.006, 0.058, -1.040, 19:04:15.350, 1560787455350
166, -20.16, -25.46, -22.66, -21.59, 5583.71, -14.06, -26.93, -23.56, 0.000, 0.000, 0.000, 19:04:15.350, 1560787455350
167, -20.09, -25.30, -22.66, -21.57, 5563.68, -13.99, -27.00, -23.69, 0.000, 0.000, 0.000, 19:04:15.350, 1560787455350
168, -20.09, -25.30, -22.62, -21.68, 5582.84, -14.15, -26.87, -23.63, 0.000, 0.000, 0.000, 19:04:15.350, 1560787455350
169, -20.07, -25.46, -22.69, -21.77, 5583.49, -14.22, -27.02, -23.56, 0.000, 0.000, 0.000, 19:04:15.351, 1560787455351
170, -20.05, -25.35, -22.66, -21.55, 5595.56, -14.04, -27.11, -23.63, 0.000, 0.000, 0.000, 19:04:15.351, 1560787455351
171, -20.09, -25.39, -22.71, -21.39, 5585.41, -14.13, -27.09, -23.49, 0.000, 0.000, 0.000, 19:04:15.351, 1560787455351
172, -20.05, -25.28, -22.73, -21.55, 5572.22, -14.13, -27.02, -23.38, 0.000, 0.000, 0.000, 19:04:15.351, 1560787455351
173, -20.14, -25.10, -22.73, -21.79, 5572.20, -14.01, -26.91, -23.63, 0.000, 0.000, 0.000, 19:04:15.351, 1560787455351
174, -20.14, -25.17, -22.73, -21.55, 5585.52, -14.26, -26.84, -23.85, 0.000, 0.000, 0.000, 19:04:15.351, 1560787455351
175, -20.05, -25.08, -22.75, -21.32, 5593.97, -14.24, -26.84, -23.36, -0.002, 0.056, -1.042, 19:04:15.351, 1560787455351
176, -20.05, -25.55, -22.69, -21.50, 5565.11, -14.06, -26.98, -23.49, 0.000, 0.000, 0.000, 19:04:15.351, 1560787455351
177, -20.09, -25.46, -22.73, -21.64, 5537.15, -14.06, -26.76, -23.67, 0.000, 0.000, 0.000, 19:04:15.351, 1560787455351
178, -20.16, -25.24, -22.73, -21.61, 5559.53, -14.24, -27.02, -23.40, 0.000, 0.000, 0.000, 19:04:15.351, 1560787455351
179, -20.12, -25.28, -22.73, -21.73, 5570.03, -14.08, -26.93, -23.67, 0.000, 0.000, 0.000, 19:04:15.351, 1560787455351
180, -20.09, -25.10, -22.66, -21.52, 5557.34, -13.84, -26.84, -23.63, 0.000, 0.000, 0.000, 19:04:15.351, 1560787455351
181, -20.14, -25.17, -22.62, -21.48, 5558.23, -14.01, -26.93, -23.63, 0.000, 0.000, 0.000, 19:04:15.351, 1560787455351
182, -20.16, -25.39, -22.66, -21.70, 5558.59, -14.17, -26.82, -23.72, 0.000, 0.000, 0.000, 19:04:15.351, 1560787455351
183, -20.09, -25.37, -22.64, -21.93, 5547.95, -14.10, -26.73, -23.65, 0.000, 0.000, 0.000, 19:04:15.351, 1560787455351
184, -20.09, -25.39, -22.66, -21.46, 5557.49, -13.86, -26.69, -23.56, 0.000, 0.000, 0.000, 19:04:15.351, 1560787455351
185, -20.09, -25.57, -22.64, -21.28, 5564.91, -13.95, -26.80, -23.51, 0.002, 0.056, -1.030, 19:04:15.351, 1560787455351
186, -20.12, -25.39, -22.64, -21.41, 5559.15, -14.17, -26.93, -23.45, 0.000, 0.000, 0.000, 19:04:15.351, 1560787455351
187, -20.12, -25.30, -22.66, -21.41, 5547.39, -14.28, -27.11, -23.38, 0.000, 0.000, 0.000, 19:04:15.351, 1560787455351
188, -20.14, -25.39, -22.73, -21.55, 5556.24, -14.19, -27.07, -23.40, 0.000, 0.000, 0.000, 19:04:15.351, 1560787455351
189, -20.12, -25.46, -22.73, -21.48, 5557.16, -13.93, -27.02, -23.16, 0.000, 0.000, 0.000, 19:04:15.351, 1560787455351
190, -20.09, -25.64, -22.73, -21.61, 5564.31, -14.06, -27.18, -23.31, 0.000, 0.000, 0.000, 19:04:15.351, 1560787455351
191, -20.09, -25.41, -22.66, -21.73, 5554.92, -14.24, -26.91, -23.56, 0.000, 0.000, 0.000, 19:04:15.351, 1560787455351
192, -20.21, -25.50, -22.73, -21.32, 5566.41, -14.13, -27.02, -23.49, 0.000, 0.000, 0.000, 19:04:15.351, 1560787455351
193, -20.16, -25.35, -22.73, -21.37, 5552.78, -14.13, -27.02, -23.40, 0.000, 0.000, 0.000, 19:04:15.351, 1560787455351
194, -20.14, -25.17, -22.71, -21.37, 5560.64, -14.06, -26.96, -23.56, 0.000, 0.000, 0.000, 19:04:15.351, 1560787455351
195, -20.14, -25.39, -22.62, -21.48, 5548.40, -14.19, -26.98, -23.47, 0.000, 0.052, -1.034, 19:04:15.351, 1560787455351
196, -20.16, -25.17, -22.69, -21.39, 5538.20, -14.13, -26.96, -23.63, 0.000, 0.000, 0.000, 19:04:15.351, 1560787455351
197, -20.21, -25.21, -22.71, -21.50, 5539.03, -14.06, -27.00, -23.58, 0.000, 0.000, 0.000, 19:04:15.351, 1560787455351
198, -20.21, -25.26, -22.73, -21.48, 5541.44, -14.28, -27.16, -23.47, 0.000, 0.000, 0.000, 19:04:15.351, 1560787455351
199, -20.18, -25.21, -22.73, -21.39, 5557.11, -14.01, -27.02, -23.63, 0.000, 0.000, 0.000, 19:04:15.352, 1560787455352
200, -20.12, -25.46, -22.71, -21.73, 5593.35, -14.06, -26.91, -23.45, 0.000, 0.000, 0.000, 19:04:15.352, 1560787455352
201, -20.09, -25.17, -22.78, -21.82, 5549.45, -13.88, -26.91, -23.58, 0.000, 0.000, 0.000, 19:04:15.352, 1560787455352
202, -20.05, -25.24, -22.80, -21.77, 5521.33, -13.90, -26.89, -23.54, 0.000, 0.000, 0.000, 19:04:15.352, 1560787455352
203, -20.05, -25.15, -22.71, -21.59, 5493.97, -14.28, -27.02, -23.22, 0.000, 0.000, 0.000, 19:04:15.352, 1560787455352
204, -20.16, -25.12, -22.64, -21.44, 5529.53, -14.22, -26.76, -23.22, 0.000, 0.000, 0.000, 19:04:15.352, 1560787455352
205, -20.14, -25.44, -22.64, -21.55, 5542.05, -13.95, -26.76, -23.25, 0.002, 0.056, -1.036, 19:04:15.352, 1560787455352
206, -20.12, -25.37, -22.73, -21.39, 5539.34, -14.06, -26.91, -23.22, 0.000, 0.000, 0.000, 19:04:15.352, 1560787455352
207, -20.09, -25.48, -22.62, -21.39, 5541.24, -13.95, -26.80, -23.34, 0.000, 0.000, 0.000, 19:04:15.352, 1560787455352
208, -20.09, -25.39, -22.62, -21.66, 5567.17, -13.95, -26.91, -23.45, 0.000, 0.000, 0.000, 19:04:15.352, 1560787455352
209, -20.12, -25.50, -22.73, -21.59, 5581.52, -14.10, -26.73, -23.56, 0.000, 0.000, 0.000, 19:04:15.352, 1560787455352
210, -20.09, -25.39, -22.71, -21.44, 5599.85, -14.06, -26.78, -23.56, 0.000, 0.000, 0.000, 19:04:15.352, 1560787455352
211, -20.16, -25.39, -22.69, -21.52, 5583.29, -14.13, -26.89, -23.45, 0.000, 0.000, 0.000, 19:04:15.352, 1560787455352
212, -20.16, -25.57, -22.71, -21.46, 5566.55, -14.15, -26.69, -23.45, 0.000, 0.000, 0.000, 19:04:15.352, 1560787455352
213, -20.14, -25.48, -22.69, -21.35, 5560.20, -14.04, -26.98, -23.72, 0.000, 0.000, 0.000, 19:04:15.352, 1560787455352
214, -20.09, -25.30, -22.71, -21.30, 5547.55, -13.97, -27.07, -23.85, 0.000, 0.000, 0.000, 19:04:15.352, 1560787455352
215, -20.09, -25.30, -22.73, -21.50, 5572.89, -14.08, -26.96, -23.63, 0.004, 0.058, -1.036, 19:04:15.352, 1560787455352
216, -20.14, -25.41, -22.66, -21.32, 5563.93, -14.01, -27.02, -23.47, 0.000, 0.000, 0.000, 19:04:15.352, 1560787455352
217, -20.14, -25.57, -22.66, -21.32, 5544.13, -13.99, -27.05, -23.29, 0.000, 0.000, 0.000, 19:04:15.352, 1560787455352
218, -20.16, -25.50, -22.64, -21.52, 5548.89, -13.88, -26.98, -23.40, 0.000, 0.000, 0.000, 19:04:15.352, 1560787455352
219, -20.16, -25.41, -22.69, -21.55, 5532.53, -13.97, -26.80, -23.34, 0.000, 0.000, 0.000, 19:04:15.352, 1560787455352
220, -20.12, -25.35, -22.69, -21.46, 5568.18, -14.06, -26.91, -23.56, 0.000, 0.000, 0.000, 19:04:15.352, 1560787455352
221, -20.14, -25.46, -22.69, -21.61, 5579.17, -14.08, -27.09, -23.72, 0.000, 0.000, 0.000, 19:04:15.352, 1560787455352
222, -20.21, -25.24, -22.66, -21.66, 5543.90, -14.06, -27.16, -23.78, 0.000, 0.000, 0.000, 19:04:15.352, 1560787455352
223, -20.16, -25.32, -22.62, -21.48, 5519.67, -13.88, -26.84, -23.78, 0.000, 0.000, 0.000, 19:04:15.352, 1560787455352
224, -20.12, -25.41, -22.69, -21.44, 5527.45, -13.95, -26.87, -23.51, 0.000, 0.000, 0.000, 19:04:15.352, 1560787455352
225, -20.14, -25.28, -22.73, -21.48, 5534.34, -13.95, -26.89, -23.49, 0.006, 0.054, -1.032, 19:04:15.352, 1560787455352
226, -20.14, -25.35, -22.69, -21.44, 5582.71, -14.13, -26.84, -23.56, 0.000, 0.000, 0.000, 19:04:15.352, 1560787455352
227, -20.18, -25.62, -22.62, -21.55, 5568.22, -13.93, -26.96, -23.49, 0.000, 0.000, 0.000, 19:04:15.352, 1560787455352
228, -20.21, -25.50, -22.66, -21.46, 5552.26, -13.90, -26.82, -23.49, 0.000, 0.000, 0.000, 19:04:15.352, 1560787455352
229, -20.18, -25.50, -22.73, -21.46, 5553.72, -13.99, -26.98, -23.51, 0.000, 0.000, 0.000, 19:04:15.353, 1560787455353
230, -20.14, -25.19, -22.73, -21.52, 5564.71, -14.10, -26.87, -23.49, 0.000, 0.000, 0.000, 19:04:15.353, 1560787455353
231, -20.09, -25.53, -22.71, -21.26, 5556.13, -13.88, -26.69, -23.60, 0.000, 0.000, 0.000, 19:04:15.353, 1560787455353
232, -20.16, -25.70, -22.73, -21.32, 5551.88, -13.88, -26.71, -23.38, 0.000, 0.000, 0.000, 19:04:15.353, 1560787455353
233, -20.16, -25.37, -22.71, -21.44, 5572.47, -14.01, -26.82, -23.56, 0.000, 0.000, 0.000, 19:04:15.353, 1560787455353
234, -20.16, -25.21, -22.71, -21.48, 5569.16, -14.28, -27.02, -23.54, 0.000, 0.000, 0.000, 19:04:15.353, 1560787455353
235, -20.14, -25.12, -22.62, -21.26, 5572.49, -14.33, -26.91, -23.58, 0.006, 0.060, -1.038, 19:04:15.353, 1560787455353
236, -20.05, -25.06, -22.66, -21.35, 5562.07, -14.13, -26.84, -23.56, 0.000, 0.000, 0.000, 19:04:15.353, 1560787455353
237, -20.09, -25.28, -22.71, -21.35, 5528.90, -13.99, -27.00, -23.51, 0.000, 0.000, 0.000, 19:04:15.353, 1560787455353
238, -20.12, -25.17, -22.71, -21.26, 5515.96, -13.99, -26.93, -23.49, 0.000, 0.000, 0.000, 19:04:15.353, 1560787455353
239, -20.16, -25.24, -22.69, -21.28, 5534.96, -13.90, -27.00, -23.78, 0.000, 0.000, 0.000, 19:04:15.353, 1560787455353
0, -7548.41, -9225.06, 8643.82, 8670.26, 4480.25, 4322.18, 5435.23, 814.61, 0.004, 0.032, -0.522, 19:04:26.390, 1560787466390
1, -7464.50, -9121.28, 8686.38, 8733.79, 4493.35, 4350.86, 5526.20, 893.35, 0.000, 0.000, 0.000, 19:04:26.390, 1560787466390
2, -7514.48, -9192.53, 8724.71, 8738.71, 4533.29, 4393.55, 5477.45, 896.22, 0.000, 0.000, 0.000, 19:04:26.390, 1560787466390
3, -7601.34, -9292.49, 8736.65, 8716.93, 4563.82, 4429.02, 5382.30, 863.56, 0.000, 0.000, 0.000, 19:04:26.390, 1560787466390
4, -7687.50, -9390.73, 8696.26, 8646.24, 4547.73, 4398.69, 5294.19, 786.98, 0.000, 0.000, 0.000, 19:04:26.390, 1560787466390
5, -7583.77, -9251.30, 8642.21, 8667.45, 4466.57, 4310.71, 5411.87, 791.68, 0.000, 0.000, 0.000, 19:04:26.390, 1560787466390
6, -7461.77, -9138.51, 8689.35, 8732.92, 4482.06, 4336.98, 5499.74, 868.23, 0.000, 0.000, 0.000, 19:04:26.390, 1560787466390
7, -7478.58, -9170.27, 8745.01, 8745.43, 4530.16, 4387.74, 5465.98, 876.19, 0.002, 0.046, -0.780, 19:04:26.390, 1560787466390
8, -7575.27, -9273.31, 8724.89, 8721.00, 4556.00, 4420.84, 5371.82, 846.10, 0.000, 0.000, 0.000, 19:04:26.390, 1560787466390
9, -7688.02, -9394.66, 8665.79, 8647.22, 4532.08, 4382.55, 5276.49, 770.82, 0.000, 0.000, 0.000, 19:04:26.390, 1560787466390
10, -7571.81, -9254.31, 8628.38, 8639.87, 4455.86, 4290.60, 5388.04, 768.07, 0.000, 0.000, 0.000, 19:04:26.391, 1560787466391
11, -7456.59, -9138.31, 8683.41, 8707.10, 4485.28, 4325.24, 5488.31, 846.17, 0.000, 0.000, 0.000, 19:04:26.391, 1560787466391
12, -7482.60, -9178.99, 8721.29, 8736.96, 4533.63, 4386.06, 5460.89, 874.42, 0.000, 0.000, 0.000, 19:04:26.391, 1560787466391
13, -7579.43, -9292.98, 8724.82, 8717.22, 4558.30, 4421.47, 5369.07, 849.88, 0.000, 0.000, 0.000, 19:04:26.391, 1560787466391
14, -7690.70, -9397.90, 8696.95, 8638.79, 4541.83, 4384.85, 5277.65, 759.94, 0.000, 0.000, 0.000, 19:04:26.391, 1560787466391
15, -7587.59, -9254.78, 8654.89, 8649.86, 4469.50, 4299.27, 5399.98, 760.38, 0.000, 0.000, 0.000, 19:04:26.391, 1560787466391
16, -7474.31, -9142.44, 8683.72, 8744.63, 4487.69, 4333.06, 5509.82, 872.23, 0.000, 0.000, 0.000, 19:04:26.391, 1560787466391
17, -7491.34, -9181.34, 8735.82, 8745.79, 4537.14, 4390.84, 5485.65, 900.04, 0.004, 0.052, -0.912, 19:04:26.391, 1560787466391
18, -7575.99, -9298.93, 8736.60, 8696.35, 4563.96, 4425.13, 5392.65, 870.04, 0.000, 0.000, 0.000, 19:04:26.391, 1560787466391
19, -7677.96, -9412.83, 8661.61, 8621.92, 4535.21, 4386.57, 5291.91, 782.04, 0.000, 0.000, 0.000, 19:04:26.391, 1560787466391
20, -7573.40, -9261.76, 8626.70, 8634.57, 4462.21, 4300.83, 5406.04, 788.77, 0.000, 0.000, 0.000, 19:04:26.391, 1560787466391
21, -7484.17, -9138.76, 8677.68, 8730.46, 4484.68, 4336.37, 5501.84, 871.70, 0.000, 0.000, 0.000, 19:04:26.391, 1560787466391
22, -7506.16, -9182.81, 8726.57, 8753.59, 4535.84, 4399.49, 5472.02, 892.26, 0.000, 0.000, 0.000, 19:04:26.391, 1560787466391
23, -7567.61, -9282.48, 8732.02, 8715.50, 4566.68, 4441.54, 5382.39, 866.87, 0.000, 0.000, 0.000, 19:04:26.391, 1560787466391
24, -7683.99, -9383.87, 8700.66, 8654.62, 4550.90, 4413.44, 5288.40, 787.79, 0.000, 0.000, 0.000, 19:04:26.391, 1560787466391
25, -7587.68, -9247.92, 8655.85, 8671.56, 4476.43, 4324.21, 5403.60, 795.52, 0.000, 0.000, 0.000, 19:04:26.391, 1560787466391
26, -7479.27, -9139.40, 8683.72, 8742.19, 4481.93, 4341.18, 5493.23, 871.67, 0.000, 0.000, 0.000, 19:04:26.391, 1560787466391
27, -7508.11, -9185.20, 8722.32, 8745.92, 4525.94, 4389.41, 5455.48, 884.12, 0.008, 0.058, -0.976, 19:04:26.391, 1560787466391
28, -7588.17, -9292.92, 8731.13, 8709.22, 4555.38, 4428.24, 5369.76, 856.72, 0.000, 0.000, 0.000, 19:04:26.391, 1560787466391
29, -7686.61, -9393.07, 8690.92, 8627.66, 4534.23, 4393.26, 5276.02, 774.55, 0.000, 0.000, 0.000, 19:04:26.391, 1560787466391
30, -7592.04, -9260.57, 8621.29, 8649.86, 4451.10, 4299.20, 5382.55, 773.24, 0.000, 0.000, 0.000, 19:04:26.391, 1560787466391
31, -7469.77, -9143.70, 8674.24, 8740.14, 4482.55, 4341.92, 5501.88, 871.92, 0.000, 0.000, 0.000, 19:04:26.391, 1560787466391
32, -7489.11, -9182.48, 8722.57, 8755.47, 4534.25, 4401.82, 5474.32, 887.48, 0.000, 0.000, 0.000, 19:04:26.391, 1560787466391
33, -7570.51, -9293.39, 8734.64, 8710.88, 4558.68, 4434.83, 5375.39, 848.67, 0.000, 0.000, 0.000, 19:04:26.391, 1560787466391
34, -7700.20, -9420.03, 8689.08, 8637.94, 4537.29, 4394.15, 5269.96, 760.72, 0.000, 0.000, 0.000, 19:04:26.391, 1560787466391
35, -7615.06, -9281.27, 8642.84, 8653.57, 4464.67, 4307.81, 5383.89, 769.26, 0.000, 0.000, 0.000, 19:04:26.391, 1560787466391
36, -7490.94, -9147.58, 8680.90, 8725.25, 4485.61, 4339.21, 5490.66, 857.14, 0.006, 0.058, -1.004, 19:04:26.391, 1560787466391
37, -7511.06, -9186.48, 8720.29, 8754.33, 4537.05, 4395.96, 5468.64, 878.27, 0.000, 0.000, 0.000, 19:04:26.391, 1560787466391
38, -7596.37, -9289.90, 8733.30, 8716.78, 4568.25, 4431.37, 5384.56, 846.44, 0.000, 0.000, 0.000, 19:04:26.391, 1560787466391
39, -7703.04, -9414.91, 8686.85, 8643.31, 4547.28, 4395.90, 5282.68, 755.47, 0.000, 0.000, 0.000, 19:04:26.391, 1560787466391
40, -7604.76, -9272.15, 8633.34, 8648.40, 4474.33, 4307.81, 5393.25, 756.03, 0.000, 0.000, 0.000, 19:04:26.391, 1560787466391
41, -7486.43, -9157.00, 8683.29, 8722.43, 4495.63, 4342.63, 5505.86, 861.79, 0.000, 0.000, 0.000, 19:04:26.392, 1560787466392
42, -7501.18, -9209.48, 8733.74, 8742.39, 4545.70, 4398.29, 5476.49, 899.75, 0.000, 0.000, 0.000, 19:04:26.392, 1560787466392
43, -7572.55, -9306.62, 8734.82, 8705.38, 4575.76, 4433.94, 5383.40, 869.55, 0.000, 0.000, 0.000, 19:04:26.392, 1560787466392
44, -7704.29, -9425.89, 8693.29, 8621.36, 4548.11, 4392.39, 5279.79, 775.87, 0.000, 0.000, 0.000, 19:04:26.392, 1560787466392
45, -7612.02, -9296.81, 8647.62, 8627.01, 4470.48, 4299.72, 5391.04, 779.09, 0.000, 0.000, 0.000, 19:04:26.392, 1560787466392
46, -7478.13, -9163.12, 8678.13, 8707.93, 4490.22, 4329.22, 5498.06, 869.04, 0.006, 0.056, -1.020, 19:04:26.392, 1560787466392
47, -7492.57, -9206.66, 8722.63, 8745.14, 4537.23, 4379.44, 5460.91, 882.13, 0.000, 0.000, 0.000, 19:04:26.392, 1560787466392
48, -7586.79, -9325.68, 8731.82, 8707.21, 4561.75, 4413.78, 5366.72, 851.96, 0.000, 0.000, 0.000, 19:04:26.392, 1560787466392
49, -7703.62, -9449.85, 8688.08, 8606.92, 4545.96, 4385.23, 5271.70, 775.23, 0.000, 0.000, 0.000, 19:04:26.392, 1560787466392
50, -7604.47, -9319.96, 8635.91, 8611.59, 4460.36, 4286.15, 5371.53, 766.53, 0.000, 0.000, 0.000, 19:04:26.392, 1560787466392
51, -7476.81, -9191.98, 8675.40, 8683.07, 4476.29, 4310.71, 5476.38, 849.43, 0.000, 0.000, 0.000, 19:04:26.392, 1560787466392
52, -7511.10, -9242.92, 8711.79, 8681.77, 4513.47, 4352.06, 5432.77, 854.48, 0.000, 0.000, 0.000, 19:04:26.392, 1560787466392
53, -7593.58, -9346.45, 8733.79, 8657.30, 4541.43, 4391.29, 5350.20, 828.47, 0.000, 0.000, 0.000, 19:04:26.392, 1560787466392
54, -7705.99, -9465.32, 8681.28, 8599.30, 4525.16, 4359.71, 5255.92, 747.58, 0.000, 0.000, 0.000, 19:04:26.392, 1560787466392
55, -7614.19, -9331.92, 8615.90, 8593.55, 4443.08, 4263.44, 5362.25, 741.52, 0.000, 0.000, 0.000, 19:04:26.392, 1560787466392
56, -7490.07, -9196.47, 8653.66, 8663.89, 4460.47, 4287.96, 5475.19, 827.31, 0.006, 0.056, -1.026, 19:04:26.392, 1560787466392
57, -7509.56, -9234.71, 8706.09, 8689.58, 4523.64, 4354.03, 5462.19, 864.27, 0.000, 0.000, 0.000, 19:04:26.392, 1560787466392
58, -7601.58, -9348.80, 8719.06, 8664.72, 4551.62, 4391.54, 5372.89, 836.87, 0.000, 0.000, 0.000, 19:04:26.392, 1560787466392
59, -7711.37, -9476.04, 8685.82, 8580.34, 4525.29, 4350.43, 5254.74, 739.98, 0.000, 0.000, 0.000, 19:04:26.392, 1560787466392
60, -7614.97, -9333.82, 8609.78, 8563.58, 4442.23, 4258.48, 5363.55, 749.77, 0.000, 0.000, 0.000, 19:04:26.392, 1560787466392
61, -7499.39, -9215.31, 8651.53, 8647.42, 4461.27, 4289.08, 5472.49, 845.54, 0.000, 0.000, 0.000, 19:04:26.392, 1560787466392
62, -7526.75, -9263.21, 8702.79, 8671.27, 4508.55, 4345.67, 5439.83, 867.29, 0.000, 0.000, 0.000, 19:04:26.392, 1560787466392
63, -7613.23, -9365.25, 8704.89, 8644.20, 4532.80, 4381.86, 5351.52, 834.44, 0.000, 0.000, 0.000, 19:04:26.392, 1560787466392
64, -7719.09, -9469.03, 8670.87, 8584.97, 4523.41, 4363.69, 5262.36, 756.27, 0.000, 0.000, 0.000, 19:04:26.392, 1560787466392
65, -7626.48, -9344.35, 8612.66, 8603.75, 4443.48, 4270.70, 5363.99, 750.37, 0.000, 0.000, 0.000, 19:04:26.392, 1560787466392
66, -7496.62, -9204.65, 8651.67, 8697.60, 4465.97, 4301.17, 5478.59, 846.71, 0.006, 0.058, -1.030, 19:04:26.392, 1560787466392
67, -7514.77, -9222.35, 8705.74, 8678.42, 4514.36, 4355.77, 5448.19, 873.06, 0.000, 0.000, 0.000, 19:04:26.392, 1560787466392
68, -7590.96, -9327.63, 8726.41, 8647.13, 4533.13, 4385.43, 5356.06, 840.27, 0.000, 0.000, 0.000, 19:04:26.392, 1560787466392
69, -7686.18, -9458.34, 8691.59, 8575.98, 4521.71, 4357.52, 5258.16, 750.66, 0.000, 0.000, 0.000, 19:04:26.392, 1560787466392
70, -7620.09, -9349.78, 8610.70, 8588.86, 4443.15, 4262.01, 5357.65, 737.43, 0.000, 0.000, 0.000, 19:04:26.392, 1560787466392
71, -7513.11, -9238.20, 8641.77, 8646.73, 4451.71, 4280.47, 5462.50, 822.30, 0.000, 0.000, 0.000, 19:04:26.392, 1560787466392
72, -7537.16, -9282.92, 8687.43, 8664.16, 4498.36, 4332.75, 5432.10, 838.62, 0.000, 0.000, 0.000, 19:04:26.393, 1560787466393
73, -7605.72, -9358.99, 8712.62, 8651.04, 4536.96, 4380.36, 5352.88, 819.03, 0.000, 0.000, 0.000, 19:04:26.393, 1560787466393
74, -7713.16, -9457.18, 8673.26, 8590.31, 4521.22, 4355.08, 5248.41, 737.14, 0.000, 0.000, 0.000, 19:04:26.393, 1560787466393
75, -7628.11, -9344.42, 8613.89, 8593.84, 4441.67, 4266.25, 5350.36, 734.86, 0.000, 0.000, 0.000, 19:04:26.393, 1560787466393
76, -7492.21, -9212.76, 8653.77, 8654.35, 4460.94, 4297.97, 5466.48, 827.37, 0.006, 0.060, -1.036, 19:04:26.393, 1560787466393
77, -7514.70, -9253.00, 8698.29, 8680.61, 4511.68, 4354.70, 5441.33, 853.70, 0.000, 0.000, 0.000, 19:04:26.393, 1560787466393
78, -7601.85, -9355.01, 8711.55, 8654.95, 4537.36, 4385.93, 5348.77, 820.98, 0.000, 0.000, 0.000, 19:04:26.393, 1560787466393
79, -7705.90, -9460.64, 8678.87, 8582.53, 4521.06, 4359.06, 5248.52, 741.79, 0.000, 0.000, 0.000, 19:04:26.393, 1560787466393
80, -7618.01, -9329.71, 8629.20, 8588.05, 4446.30, 4268.20, 5349.42, 740.45, 0.000, 0.000, 0.000, 19:04:26.393, 1560787466393
81, -7490.31, -9207.09, 8675.29, 8663.07, 4463.96, 4295.67, 5460.93, 832.11, 0.000, 0.000, 0.000, 19:04:26.393, 1560787466393
82, -7503.06, -9238.31, 8704.55, 8684.55, 4515.95, 4355.19, 5434.02, 856.32, 0.000, 0.000, 0.000, 19:04:26.393, 1560787466393
83, -7584.77, -9337.69, 8716.20, 8682.83, 4540.89, 4395.34, 5348.06, 826.97, 0.000, 0.000, 0.000, 19:04:26.393, 1560787466393
84, -7696.91, -9455.10, 8679.52, 8599.86, 4518.02, 4365.74, 5239.94, 739.46, 0.000, 0.000, 0.000, 19:04:26.393, 1560787466393
85, -7622.64, -9335.94, 8610.79, 8581.26, 4431.12, 4261.74, 5326.69, 721.83, 0.000, 0.000, 0.000, 19:04:26.393, 1560787466393
86, -7498.54, -9210.01, 8641.81, 8657.81, 4445.38, 4286.46, 5446.14, 813.38, 0.006, 0.060, -1.032, 19:04:26.393, 1560787466393
87, -7527.44, -9254.67, 8679.16, 8680.93, 4501.13, 4347.32, 5429.10, 842.53, 0.000, 0.000, 0.000, 19:04:26.393, 1560787466393
88, -7619.84, -9377.83, 8685.64, 8660.81, 4527.86, 4386.13, 5344.46, 817.25, 0.000, 0.000, 0.000, 19:04:26.393, 1560787466393
89, -7743.94, -9508.54, 8652.65, 8577.44, 4510.67, 4356.42, 5239.45, 731.59, 0.000, 0.000, 0.000, 19:04:26.393, 1560787466393
90, -7673.09, -9402.82, 8594.38, 8566.55, 4434.25, 4264.06, 5349.89, 727.84, 0.000, 0.000, 0.000, 19:04:26.393, 1560787466393
91, -7565.31, -9288.25, 8622.63, 8637.97, 4447.55, 4287.15, 5463.86, 820.35, 0.000, 0.000, 0.000, 19:04:26.393, 1560787466393
92, -7606.54, -9348.33, 8653.30, 8645.54, 4487.90, 4335.37, 5432.73, 838.24, 0.000, 0.000, 0.000, 19:04:26.393, 1560787466393
93, -7721.79, -9468.29, 8655.96, 8616.15, 4515.88, 4375.87, 5367.61, 825.47, 0.000, 0.000, 0.000, 19:04:26.393, 1560787466393
94, -7877.83, -9622.00, 8611.14, 8548.83, 4497.42, 4348.44, 5264.24, 743.55, 0.000, 0.000, 0.000, 19:04:26.393, 1560787466393
95, -7818.33, -9536.13, 8552.65, 8506.72, 4412.44, 4239.92, 5350.31, 726.70, 0.000, 0.000, 0.000, 19:04:26.393, 1560787466393
96, -7714.37, -9420.46, 8575.56, 8557.54, 4426.14, 4256.40, 5467.10, 817.56, 0.008, 0.054, -1.028, 19:04:26.393, 1560787466393
97, -7748.32, -9458.43, 8627.86, 8566.46, 4462.39, 4297.44, 5434.89, 836.22, 0.000, 0.000, 0.000, 19:04:26.393, 1560787466393
98, -7846.22, -9568.76, 8617.00, 8541.83, 4481.81, 4324.28, 5343.21, 804.55, 0.000, 0.000, 0.000, 19:04:26.393, 1560787466393
99, -7959.39, -9712.15, 8559.33, 8498.27, 4470.15, 4303.67, 5238.76, 727.12, 0.000, 0.000, 0.000, 19:04:26.393, 1560787466393
100, -7844.84, -9580.14, 8528.02, 8503.14, 4411.41, 4223.38, 5345.64, 730.88, 0.000, 0.000, 0.000, 19:04:26.393, 1560787466393
101, -7716.40, -9437.62, 8586.24, 8555.44, 4426.16, 4246.81, 5465.34, 837.14, 0.000, 0.000, 0.000, 19:04:26.393, 1560787466393
102, -7740.52, -9482.73, 8613.45, 8577.46, 4471.94, 4301.55, 5430.92, 858.33, 0.000, 0.000, 0.000, 19:04:26.393, 1560787466393
103, -7813.10, -9587.94, 8627.17, 8570.58, 4499.96, 4339.90, 5343.30, 832.11, 0.000, 0.000, 0.000, 19:04:26.393, 1560787466393
104, -7918.91, -9690.49, 8607.86, 8491.83, 4485.84, 4312.57, 5234.40, 740.94, 0.000, 0.000, 0.000, 19:04:26.394, 1560787466394
105, -7814.30, -9541.65, 8554.37, 8500.01, 4417.40, 4224.01, 5329.57, 725.67, 0.000, 0.000, 0.000, 19:04:26.394, 1560787466394
106, -7664.61, -9411.80, 8599.41, 8594.49, 4435.75, 4252.33, 5446.63, 810.43, 0.008, 0.050, -1.034, 19:04:26.394, 1560787466394
107, -7677.82, -9440.79, 8644.13, 8608.51, 4485.41, 4309.84, 5423.74, 829.38, 0.000, 0.000, 0.000, 19:04:26.394, 1560787466394
108, -7753.75, -9524.12, 8652.09, 8577.06, 4505.87, 4341.89, 5335.94, 795.32, 0.000, 0.000, 0.000, 19:04:26.394, 1560787466394
109, -7841.66, -9618.89, 8631.33, 8524.06, 4500.37, 4329.73, 5241.91, 722.36, 0.000, 0.000, 0.000, 19:04:26.394, 1560787466394
110, -7749.06, -9485.23, 8578.76, 8533.16, 4434.85, 4243.41, 5352.10, 730.72, 0.000, 0.000, 0.000, 19:04:26.394, 1560787466394
111, -7618.19, -9345.20, 8606.36, 8608.46, 4450.08, 4264.18, 5474.01, 822.05, 0.000, 0.000, 0.000, 19:04:26.394, 1560787466394
112, -7611.24, -9365.02, 8664.52, 8622.41, 4499.85, 4320.75, 5450.23, 843.60, 0.000, 0.000, 0.000, 19:04:26.394, 1560787466394
113, -7688.08, -9468.15, 8691.21, 8606.11, 4525.69, 4358.52, 5369.81, 821.96, 0.000, 0.000, 0.000, 19:04:26.394, 1560787466394
114, -7795.48, -9582.15, 8653.34, 8523.14, 4505.53, 4330.34, 5259.16, 737.94, 0.000, 0.000, 0.000, 19:04:26.394, 1560787466394
115, -7701.43, -9453.78, 8592.21, 8518.54, 4431.14, 4234.85, 5356.33, 732.15, 0.000, 0.000, 0.000, 19:04:26.394, 1560787466394
116, -7573.64, -9319.67, 8620.02, 8600.91, 4446.03, 4257.31, 5479.46, 827.82, 0.004, 0.054, -1.028, 19:04:26.394, 1560787466394
117, -7584.71, -9344.35, 8659.38, 8617.45, 4494.35, 4314.65, 5457.96, 859.56, 0.000, 0.000, 0.000, 19:04:26.394, 1560787466394
118, -7653.26, -9417.82, 8671.22, 8602.54, 4521.44, 4353.92, 5372.55, 840.16, 0.000, 0.000, 0.000, 19:04:26.395, 1560787466395
119, -7767.07, -9552.73, 8636.49, 8538.66, 4503.38, 4327.66, 5258.11, 759.15, 0.000, 0.000, 0.000, 19:04:26.395, 1560787466395
120, -7684.48, -9442.09, 8580.25, 8527.50, 4427.81, 4235.39, 5350.00, 751.56, 0.000, 0.000, 0.000, 19:04:26.871, 1560787466871
121, -7541.14, -9292.16, 8620.49, 8602.81, 4440.93, 4256.17, 5465.69, 837.05, 0.000, 0.000, 0.000, 19:04:26.871, 1560787466871
122, -7548.74, -9314.04, 8681.77, 8636.74, 4490.60, 4316.75, 5433.19, 855.16, 0.000, 0.000, 0.000, 19:04:26.871, 1560787466871
123, -7631.51, -9403.36, 8696.13, 8619.19, 4514.99, 4353.72, 5341.08, 825.07, 0.000, 0.000, 0.000, 19:04:26.871, 1560787466871
124, -7740.95, -9522.11, 8652.54, 8535.66, 4501.04, 4337.22, 5238.00, 750.48, 0.000, 0.000, 0.000, 19:04:26.871, 1560787466871
125, -7660.08, -9415.87, 8614.38, 8524.58, 4422.18, 4241.27, 5326.47, 737.16, 0.000, 0.000, 0.000, 19:04:26.871, 1560787466871
126, -7529.61, -9273.92, 8636.67, 8608.13, 4432.28, 4260.89, 5444.08, 828.91, 0.004, 0.060, -1.042, 19:04:26.871, 1560787466871
127, -7532.76, -9282.39, 8670.53, 8646.44, 4493.06, 4324.32, 5431.56, 859.36, 0.000, 0.000, 0.000, 19:04:26.871, 1560787466871
128, -7614.55, -9378.48, 8682.18, 8615.12, 4518.76, 4360.67, 5344.77, 826.43, 0.000, 0.000, 0.000, 19:04:26.871, 1560787466871
129, -7737.19, -9512.52, 8647.64, 8541.23, 4499.56, 4335.10, 5213.05, 732.13, 0.000, 0.000, 0.000, 19:04:26.871, 1560787466871
130, -7642.91, -9388.02, 8613.04, 8566.10, 4441.85, 4254.86, 5328.52, 735.95, 0.000, 0.000, 0.000, 19:04:26.871, 1560787466871
131, -7495.86, -9229.73, 8658.60, 8657.23, 4476.70, 4287.65, 5495.29, 844.47, 0.000, 0.000, 0.000, 19:04:26.871, 1560787466871
132, -7522.50, -9269.31, 8706.65, 8665.39, 4520.19, 4342.00, 5470.10, 869.84, 0.000, 0.000, 0.000, 19:04:26.871, 1560787466871
133, -7604.60, -9375.93, 8715.86, 8635.46, 4538.92, 4380.58, 5385.25, 844.43, 0.000, 0.000, 0.000, 19:04:26.872, 1560787466872
134, -7714.41, -9491.69, 8682.38, 8572.47, 4524.80, 4363.37, 5280.60, 769.46, 0.000, 0.000, 0.000, 19:04:26.872, 1560787466872
135, -7647.29, -9383.55, 8606.52, 8561.59, 4447.95, 4266.21, 5367.46, 757.52, 0.000, 0.000, 0.000, 19:04:26.872, 1560787466872
136, -7521.09, -9251.97, 8642.48, 8630.97, 4448.02, 4274.73, 5478.21, 836.04, 0.002, 0.058, -1.038, 19:04:26.872, 1560787466872
137, -7535.80, -9267.55, 8682.96, 8642.32, 4496.48, 4332.08, 5460.67, 865.03, 0.000, 0.000, 0.000, 19:04:26.872, 1560787466872
138, -7626.62, -9368.20, 8672.70, 8601.04, 4513.96, 4362.95, 5363.73, 832.24, 0.000, 0.000, 0.000, 19:04:26.872, 1560787466872
139, -7742.22, -9521.57, 8651.87, 8551.24, 4495.79, 4336.60, 5241.89, 742.50, 0.000, 0.000, 0.000, 19:04:26.872, 1560787466872
140, -7658.09, -9407.63, 8586.76, 8551.49, 4423.07, 4241.38, 5327.43, 730.52, 0.000, 0.000, 0.000, 19:04:26.872, 1560787466872
141, -7516.87, -9250.69, 8635.57, 8606.56, 4439.62, 4264.35, 5452.10, 827.13, 0.000, 0.000, 0.000, 19:04:26.872, 1560787466872
142, -7526.82, -9278.19, 8699.48, 8649.86, 4493.46, 4324.41, 5434.25, 861.57, 0.000, 0.000, 0.000, 19:04:26.872, 1560787466872
143, -7600.20, -9363.12, 8696.37, 8637.70, 4524.51, 4370.30, 5357.85, 846.08, 0.000, 0.000, 0.000, 19:04:26.872, 1560787466872
144, -7714.95, -9485.72, 8662.26, 8556.02, 4505.64, 4348.60, 5245.44, 764.05, 0.000, 0.000, 0.000, 19:04:26.872, 1560787466872
145, -7637.75, -9381.14, 8610.70, 8539.28, 4431.93, 4253.72, 5328.63, 750.26, 0.006, 0.060, -1.038, 19:04:26.872, 1560787466872
146, -7505.96, -9238.42, 8639.11, 8629.47, 4445.83, 4276.09, 5419.27, 832.29, 0.000, 0.000, 0.000, 19:04:26.872, 1560787466872
147, -7543.07, -9292.04, 8680.14, 8655.47, 4478.62, 4323.70, 5365.69, 835.35, 0.000, 0.000, 0.000, 19:04:26.872, 1560787466872
148, -7614.99, -9377.67, 8697.33, 8639.78, 4521.15, 4372.40, 5358.90, 831.06, 0.000, 0.000, 0.000, 19:04:26.872, 1560787466872
149, -7723.00, -9491.60, 8662.28, 8562.57, 4506.20, 4352.11, 5249.08, 744.45, 0.000, 0.000, 0.000, 19:04:26.872, 1560787466872
150, -7632.41, -9358.50, 8623.28, 8558.35, 4436.46, 4264.67, 5332.08, 729.40, 0.000, 0.000, 0.000, 19:04:26.872, 1560787466872
151, -7495.08, -9221.95, 8644.65, 8635.80, 4448.58, 4283.98, 5445.06, 815.57, 0.000, 0.000, 0.000, 19:04:26.872, 1560787466872
152, -7522.46, -9288.36, 8674.53, 8655.11, 4490.33, 4334.92, 5415.92, 839.22, 0.000, 0.000, 0.000, 19:04:26.872, 1560787466872
153, -7611.10, -9399.53, 8690.09, 8615.79, 4508.23, 4366.77, 5326.15, 807.03, 0.000, 0.000, 0.000, 19:04:26.872, 1560787466872
154, -7732.52, -9519.25, 8664.41, 8550.41, 4498.15, 4353.14, 5230.06, 730.37, 0.000, 0.000, 0.000, 19:04:26.872, 1560787466872
155, -7663.72, -9399.11, 8614.90, 8547.51, 4424.82, 4258.54, 5333.10, 717.69, 0.008, 0.066, -1.030, 19:04:26.872, 1560787466872
156, -7530.97, -9240.41, 8623.77, 8623.28, 4430.45, 4268.38, 5446.11, 799.43, 0.000, 0.000, 0.000, 19:04:26.872, 1560787466872
157, -7545.10, -9266.00, 8691.52, 8662.89, 4486.89, 4325.38, 5426.78, 831.40, 0.000, 0.000, 0.000, 19:04:26.872, 1560787466872
158, -7608.22, -9368.00, 8690.49, 8606.23, 4515.48, 4366.59, 5349.85, 813.18, 0.000, 0.000, 0.000, 19:04:26.872, 1560787466872
159, -7721.07, -9512.39, 8655.56, 8560.96, 4503.05, 4350.59, 5235.14, 731.68, 0.000, 0.000, 0.000, 19:04:26.872, 1560787466872
160, -7666.80, -9413.64, 8598.04, 8540.85, 4427.01, 4245.62, 5310.17, 708.75, 0.000, 0.000, 0.000, 19:04:26.872, 1560787466872
161, -7534.57, -9266.29, 8636.92, 8607.10, 4439.79, 4261.83, 5431.12, 798.36, 0.000, 0.000, 0.000, 19:04:26.872, 1560787466872
162, -7532.47, -9285.45, 8677.10, 8639.60, 4485.35, 4323.90, 5412.43, 832.07, 0.000, 0.000, 0.000, 19:04:26.872, 1560787466872
163, -7614.93, -9374.63, 8675.02, 8630.41, 4504.23, 4363.04, 5330.44, 813.11, 0.000, 0.000, 0.000, 19:04:26.873, 1560787466873
164, -7731.78, -9505.06, 8651.26, 8568.45, 4495.07, 4355.28, 5226.87, 744.27, 0.000, 0.000, 0.000, 19:04:26.873, 1560787466873
165, -7653.26, -9377.72, 8602.20, 8567.33, 4428.95, 4265.58, 5316.56, 736.58, 0.006, 0.062, -1.030, 19:04:26.873, 1560787466873
166, -7519.51, -9236.30, 8639.51, 8626.72, 4441.49, 4280.58, 5433.17, 828.04, 0.000, 0.000, 0.000, 19:04:26.873, 1560787466873
167, -7543.07, -9297.14, 8666.31, 8652.05, 4489.48, 4333.20, 5411.22, 851.94, 0.000, 0.000, 0.000, 19:04:26.873, 1560787466873
168, -7627.98, -9396.23, 8674.29, 8616.24, 4511.07, 4367.55, 5335.38, 823.53, 0.000, 0.000, 0.000, 19:04:26.873, 1560787466873
169, -7745.04, -9522.49, 8645.12, 8543.15, 4491.58, 4344.58, 5214.51, 728.73, 0.000, 0.000, 0.000, 19:04:26.873, 1560787466873
170, -7688.91, -9419.96, 8579.14, 8526.09, 4414.78, 4235.68, 5279.66, 689.48, 0.000, 0.000, 0.000, 19:04:26.873, 1560787466873
171, -7550.08, -9265.04, 8596.32, 8588.84, 4420.97, 4240.53, 5398.04, 763.56, 0.000, 0.000, 0.000, 19:04:26.873, 1560787466873
172, -7560.14, -9288.94, 8641.09, 8611.43, 4460.60, 4292.27, 5377.47, 786.54, 0.000, 0.000, 0.000, 19:04:26.873, 1560787466873
173, -7645.84, -9399.18, 8641.36, 8579.74, 4462.12, 4313.71, 5275.32, 740.16, 0.000, 0.000, 0.000, 19:04:26.873, 1560787466873
174, -7780.51, -9550.27, 8605.06, 8495.70, 4429.29, 4283.42, 5136.81, 642.52, 0.000, 0.000, 0.000, 19:04:26.873, 1560787466873
175, -7710.88, -9436.39, 8572.85, 8503.41, 4375.35, 4198.40, 5242.22, 639.66, 0.006, 0.060, -1.030, 19:04:26.873, 1560787466873
176, -7550.91, -9275.28, 8608.24, 8586.40, 4410.58, 4232.15, 5406.46, 752.16, 0.000, 0.000, 0.000, 19:04:26.873, 1560787466873
177, -7550.80, -9293.09, 8664.27, 8626.97, 4470.42, 4309.64, 5411.71, 799.90, 0.000, 0.000, 0.000, 19:04:26.873, 1560787466873
178, -7629.92, -9387.11, 8677.73, 8614.16, 4489.48, 4353.85, 5325.73, 778.94, 0.000, 0.000, 0.000, 19:04:26.873, 1560787466873
179, -7744.77, -9499.07, 8662.13, 8552.18, 4477.79, 4346.34, 5220.07, 711.75, 0.000, 0.000, 0.000, 19:04:26.873, 1560787466873
180, -7676.24, -9390.12, 8617.25, 8542.64, 4420.04, 4256.22, 5304.47, 699.03, 0.000, 0.000, 0.000, 19:04:26.873, 1560787466873
181, -7540.34, -9266.12, 8627.08, 8619.46, 4433.67, 4266.12, 5413.41, 779.65, 0.000, 0.000, 0.000, 19:04:26.873, 1560787466873
182, -7553.35, -9289.76, 8664.88, 8643.69, 4469.57, 4314.96, 5367.79, 797.31, 0.000, 0.000, 0.000, 19:04:26.873, 1560787466873
183, -7634.44, -9371.86, 8685.62, 8634.43, 4482.22, 4351.50, 5302.71, 784.23, 0.000, 0.000, 0.000, 19:04:26.873, 1560787466873
184, -7751.27, -9493.17, 8662.96, 8535.53, 4465.86, 4332.35, 5200.54, 711.81, 0.000, 0.000, 0.000, 19:04:26.873, 1560787466873
185, -7685.67, -9408.83, 8598.85, 8522.85, 4406.09, 4231.54, 5286.68, 692.59, 0.006, 0.058, -1.028, 19:04:26.873, 1560787466873
186, -7545.32, -9260.64, 8628.76, 8600.97, 4427.59, 4244.62, 5411.76, 780.03, 0.000, 0.000, 0.000, 19:04:26.873, 1560787466873
187, -7552.07, -9284.31, 8673.57, 8627.08, 4467.64, 4301.03, 5388.58, 806.05, 0.000, 0.000, 0.000, 19:04:26.873, 1560787466873
188, -7629.05, -9393.32, 8674.42, 8602.29, 4472.23, 4330.96, 5301.52, 771.05, 0.000, 0.000, 0.000, 19:04:26.873, 1560787466873
189, -7741.33, -9508.70, 8652.27, 8517.94, 4446.97, 4309.66, 5182.90, 682.20, 0.000, 0.000, 0.000, 19:04:26.873, 1560787466873
190, -7669.26, -9388.54, 8603.50, 8501.33, 4388.30, 4215.94, 5273.54, 667.78, 0.000, 0.000, 0.000, 19:04:26.873, 1560787466873
191, -7531.55, -9262.32, 8632.22, 8602.85, 4416.17, 4243.72, 5409.41, 768.34, 0.000, 0.000, 0.000, 19:04:26.874, 1560787466874
192, -7547.29, -9299.08, 8673.50, 8643.73, 4464.60, 4310.58, 5391.55, 797.87, 0.000, 0.000, 0.000, 19:04:26.874, 1560787466874
193, -7614.97, -9368.60, 8687.25, 8623.88, 4481.32, 4352.02, 5317.06, 778.53, 0.000, 0.000, 0.000, 19:04:26.874, 1560787466874
194, -7727.53, -9477.94, 8659.04, 8563.49, 4455.28, 4331.34, 5200.25, 696.19, 0.000, 0.000, 0.000, 19:04:26.874, 1560787466874
195, -7662.65, -9375.08, 8615.41, 8540.98, 4399.20, 4234.52, 5274.56, 672.16, 0.008, 0.068, -1.032, 19:04:26.874, 1560787466874
196, -7514.92, -9236.46, 8635.26, 8620.42, 4424.51, 4254.19, 5401.30, 761.39, 0.000, 0.000, 0.000, 19:04:26.874, 1560787466874
197, -7521.90, -9267.03, 8673.01, 8637.25, 4462.86, 4308.28, 5377.02, 789.22, 0.000, 0.000, 0.000, 19:04:26.874, 1560787466874
198, -7598.72, -9355.10, 8670.24, 8612.62, 4476.85, 4345.27, 5300.07, 768.81, 0.000, 0.000, 0.000, 19:04:26.874, 1560787466874
199, -7713.52, -9470.12, 8645.86, 8544.51, 4458.44, 4332.93, 5193.99, 695.47, 0.000, 0.000, 0.000, 19:04:26.874, 1560787466874
200, -7642.71, -9363.66, 8590.98, 8539.39, 4403.87, 4242.72, 5273.25, 677.91, 0.000, 0.000, 0.000, 19:04:26.874, 1560787466874
201, -7490.49, -9201.88, 8630.32, 8630.81, 4431.19, 4268.15, 5407.54, 773.21, 0.000, 0.000, 0.000, 19:04:26.874, 1560787466874
202, -7485.91, -9214.95, 8692.88, 8672.14, 4480.00, 4337.09, 5403.24, 815.17, 0.000, 0.000, 0.000, 19:04:26.874, 1560787466874
203, -7563.11, -9302.10, 8697.60, 8642.53, 4488.07, 4366.19, 5315.45, 787.97, 0.000, 0.000, 0.000, 19:04:26.874, 1560787466874
204, -7686.18, -9433.42, 8660.92, 8565.59, 4462.55, 4342.43, 5198.81, 704.30, 0.000, 0.000, 0.000, 19:04:26.874, 1560787466874
205, -7633.93, -9356.69, 8606.67, 8553.50, 4396.43, 4243.81, 5268.91, 675.54, 0.004, 0.060, -1.028, 19:04:26.874, 1560787466874
206, -7481.67, -9197.38, 8627.26, 8643.33, 4427.88, 4267.37, 5407.83, 774.35, 0.000, 0.000, 0.000, 19:04:26.874, 1560787466874
207, -7474.47, -9184.35, 8671.00, 8654.71, 4472.61, 4327.54, 5391.71, 804.82, 0.000, 0.000, 0.000, 19:04:26.874, 1560787466874
208, -7553.64, -9298.08, 8690.16, 8632.00, 4482.37, 4364.58, 5305.37, 778.91, 0.000, 0.000, 0.000, 19:04:26.875, 1560787466875
209, -7698.52, -9491.09, 8657.23, 8587.45, 4448.73, 4349.34, 5159.61, 689.28, 0.000, 0.000, 0.000, 19:04:26.875, 1560787466875
210, -7645.70, -9388.98, 8588.95, 8564.36, 4392.81, 4254.48, 5247.41, 669.73, 0.000, 0.000, 0.000, 19:04:26.875, 1560787466875
211, -7486.27, -9208.45, 8632.02, 8647.64, 4424.84, 4277.10, 5419.81, 771.49, 0.000, 0.000, 0.000, 19:04:26.875, 1560787466875
212, -7486.52, -9225.44, 8692.33, 8671.76, 4461.88, 4334.07, 5392.25, 793.73, 0.000, 0.000, 0.000, 19:04:26.875, 1560787466875
213, -7559.85, -9298.59, 8693.04, 8655.69, 4472.65, 4370.10, 5313.90, 774.87, 0.000, 0.000, 0.000, 19:04:26.875, 1560787466875
214, -7679.88, -9419.27, 8639.60, 8572.05, 4448.24, 4354.59, 5207.98, 699.94, 0.000, 0.000, 0.000, 19:04:26.875, 1560787466875
215, -7610.68, -9342.20, 8591.00, 8566.19, 4407.45, 4269.21, 5295.04, 691.14, 0.006, 0.066, -1.030, 19:04:26.875, 1560787466875
216, -7472.37, -9198.50, 8632.56, 8653.61, 4438.79, 4288.45, 5428.86, 788.26, 0.000, 0.000, 0.000, 19:04:26.876, 1560787466876
217, -7497.69, -9231.25, 8678.78, 8676.01, 4477.46, 4340.71, 5409.79, 811.99, 0.000, 0.000, 0.000, 19:04:26.876, 1560787466876
218, -7573.02, -9324.57, 8679.72, 8643.46, 4486.33, 4369.27, 5327.43, 785.60, 0.000, 0.000, 0.000, 19:04:26.876, 1560787466876
219, -7696.51, -9455.01, 8649.57, 8569.95, 4460.89, 4350.61, 5201.81, 702.02, 0.000, 0.000, 0.000, 19:04:26.876, 1560787466876
220, -7628.29, -9350.27, 8592.55, 8554.95, 4405.46, 4258.66, 5275.39, 681.30, 0.000, 0.000, 0.000, 19:04:26.876, 1560787466876
221, -7471.56, -9180.84, 8628.78, 8641.25, 4431.66, 4273.47, 5405.81, 773.21, 0.000, 0.000, 0.000, 19:04:26.876, 1560787466876
222, -7474.78, -9204.69, 8679.32, 8672.32, 4477.41, 4330.36, 5384.76, 801.73, 0.000, 0.000, 0.000, 19:04:26.876, 1560787466876
223, -7566.15, -9309.79, 8677.39, 8634.90, 4471.60, 4354.99, 5291.62, 760.18, 0.000, 0.000, 0.000, 19:04:26.876, 1560787466876
224, -7693.00, -9442.32, 8650.21, 8555.64, 4444.31, 4332.39, 5167.70, 674.69, 0.000, 0.000, 0.000, 19:04:26.876, 1560787466876
225, -7615.78, -9341.02, 8607.23, 8547.46, 4400.37, 4242.83, 5251.99, 661.75, 0.002, 0.068, -1.028, 19:04:26.876, 1560787466876
226, -7460.56, -9179.71, 8645.12, 8637.65, 4437.94, 4270.55, 5398.71, 766.06, 0.000, 0.000, 0.000, 19:04:26.876, 1560787466876
227, -7479.30, -9210.75, 8675.02, 8669.06, 4478.44, 4330.49, 5377.65, 797.15, 0.000, 0.000, 0.000, 19:04:26.876, 1560787466876
228, -7570.42, -9310.10, 8673.21, 8634.37, 4475.62, 4355.08, 5296.20, 767.29, 0.000, 0.000, 0.000, 19:04:26.876, 1560787466876
229, -7706.23, -9458.27, 8631.48, 8555.08, 4439.79, 4329.38, 5178.36, 678.02, 0.000, 0.000, 0.000, 19:04:26.876, 1560787466876
230, -7631.22, -9358.27, 8586.62, 8561.37, 4401.28, 4248.26, 5273.60, 672.30, 0.000, 0.000, 0.000, 19:04:26.876, 1560787466876
231, -7484.75, -9195.24, 8620.69, 8631.91, 4427.61, 4260.60, 5408.99, 766.24, 0.000, 0.000, 0.000, 19:04:26.876, 1560787466876
232, -7487.66, -9208.81, 8668.43, 8666.26, 4461.36, 4315.70, 5360.26, 784.61, 0.000, 0.000, 0.000, 19:04:26.876, 1560787466876
233, -7559.16, -9306.10, 8677.24, 8640.83, 4462.17, 4348.67, 5272.53, 760.76, 0.000, 0.000, 0.000, 19:04:26.876, 1560787466876
234, -7690.81, -9446.54, 8641.77, 8567.29, 4441.69, 4337.87, 5198.55, 699.16, 0.000, 0.000, 0.000, 19:04:26.876, 1560787466876
235, -7628.29, -9349.64, 8591.07, 8562.71, 4400.19, 4254.72, 5305.54, 694.60, 0.002, 0.060, -1.038, 19:04:26.876, 1560787466876
236, -7490.05, -9216.70, 8622.97, 8646.50, 4418.72, 4266.34, 5430.33, 784.88, 0.000, 0.000, 0.000, 19:04:26.876, 1560787466876
237, -7490.02, -9232.08, 8685.49, 8681.93, 4462.35, 4329.04, 5411.31, 815.48, 0.000, 0.000, 0.000, 19:04:26.876, 1560787466876
238, -7564.10, -9313.95, 8685.75, 8648.60, 4471.56, 4361.03, 5327.29, 788.46, 0.000, 0.000, 0.000, 19:04:26.877, 1560787466877
239, -7692.33, -9441.91, 8640.20, 8560.03, 4440.58, 4339.01, 5190.34, 700.24, 0.000, 0.000, 0.000, 19:04:26.877, 1560787466877
240, -7635.67, -9354.12, 8586.60, 8548.96, 4393.97, 4248.84, 5267.86, 683.32, 0.000, 0.000, 0.000, 19:04:26.877, 1560787466877
241, -7481.84, -9200.11, 8617.78, 8639.91, 4421.67, 4264.31, 5419.54, 782.29, 0.000, 0.000, 0.000, 19:04:27.355, 1560787467355
242, -7476.23, -9218.55, 8664.79, 8662.89, 4458.48, 4319.99, 5399.87, 811.93, 0.000, 0.000, 0.000, 19:04:27.355, 1560787467355
243, -7560.75, -9306.75, 8670.64, 8635.37, 4465.39, 4349.29, 5317.79, 786.85, 0.000, 0.000, 0.000, 19:04:27.355, 1560787467355
244, -7684.57, -9445.13, 8660.92, 8574.40, 4450.21, 4342.36, 5208.14, 716.51, 0.000, 0.000, 0.000, 19:04:27.355, 1560787467355
245, -7625.39, -9348.48, 8596.88, 8544.16, 4399.49, 4248.22, 5281.76, 696.99, 0.006, 0.058, -1.038, 19:04:27.355, 1560787467355
246, -7476.88, -9194.39, 8627.19, 8628.87, 4420.37, 4258.81, 5417.77, 784.37, 0.000, 0.000, 0.000, 19:04:27.355, 1560787467355
247, -7485.58, -9228.68, 8669.86, 8670.58, 4459.08, 4315.36, 5400.94, 815.79, 0.000, 0.000, 0.000, 19:04:27.356, 1560787467356
248, -7568.01, -9313.32, 8676.79, 8630.81, 4459.49, 4337.20, 5310.01, 778.69, 0.000, 0.000, 0.000, 19:04:27.356, 1560787467356
249, -7693.29, -9457.63, 8639.24, 8561.46, 4435.21, 4322.87, 5184.46, 692.23, 0.000, 0.000, 0.000, 19:04:27.356, 1560787467356
250, -7636.56, -9377.85, 8576.05, 8553.48, 4386.10, 4230.45, 5260.15, 668.65, 0.000, 0.000, 0.000, 19:04:27.356, 1560787467356
251, -7474.58, -9193.09, 8613.40, 8628.94, 4416.91, 4245.11, 5406.19, 766.69, 0.000, 0.000, 0.000, 19:04:27.356, 1560787467356
252, -7478.47, -9195.64, 8668.77, 8653.68, 4465.57, 4307.99, 5397.28, 804.84, 0.000, 0.000, 0.000, 19:04:27.356, 1560787467356
253, -7573.69, -9314.55, 8673.79, 8625.34, 4471.65, 4339.19, 5321.93, 785.19, 0.000, 0.000, 0.000, 19:04:27.356, 1560787467356
254, -7702.77, -9475.82, 8652.87, 8560.61, 4454.01, 4333.38, 5210.77, 713.74, 0.000, 0.000, 0.000, 19:04:27.356, 1560787467356
255, -7645.44, -9385.59, 8599.25, 8540.60, 4401.01, 4240.22, 5269.76, 683.25, 0.002, 0.062, -1.036, 19:04:27.356, 1560787467356
0, -7493.96, -9205.81, 8619.91, 8611.95, 4418.92, 4249.07, 5392.60, 771.63, 0.000, 0.000, 0.000, 19:04:27.356, 1560787467356
1, -7508.78, -9223.38, 8657.68, 8629.47, 4462.28, 4309.37, 5395.35, 806.92, 0.000, 0.000, 0.000, 19:04:27.356, 1560787467356
2, -7575.65, -9326.87, 8672.28, 8631.77, 4482.37, 4360.29, 5335.09, 792.48, 0.000, 0.000, 0.000, 19:04:27.356, 1560787467356
3, -7692.35, -9481.54, 8646.97, 8576.68, 4455.02, 4349.83, 5211.85, 710.14, 0.000, 0.000, 0.000, 19:04:27.356, 1560787467356
4, -7644.34, -9389.45, 8599.57, 8560.81, 4407.43, 4261.49, 5282.12, 689.42, 0.000, 0.000, 0.000, 19:04:27.356, 1560787467356
5, -7503.64, -9213.66, 8628.04, 8653.23, 4435.14, 4274.35, 5423.20, 782.98, 0.000, 0.000, 0.000, 19:04:27.356, 1560787467356
6, -7508.58, -9212.32, 8668.99, 8656.47, 4475.15, 4331.68, 5412.79, 817.18, 0.000, 0.000, 0.000, 19:04:27.356, 1560787467356
7, -7589.24, -9339.54, 8657.70, 8620.31, 4472.94, 4356.65, 5311.53, 780.75, 0.000, 0.000, 0.000, 19:04:27.356, 1560787467356
8, -7716.36, -9483.76, 8629.14, 8551.69, 4444.33, 4343.86, 5179.52, 696.39, 0.004, 0.060, -1.030, 19:04:27.356, 1560787467356
9, -7646.71, -9379.06, 8592.75, 8550.70, 4405.73, 4261.47, 5283.21, 688.43, 0.000, 0.000, 0.000, 19:04:27.356, 1560787467356
10, -7485.96, -9211.00, 8621.65, 8640.07, 4431.79, 4273.94, 5426.80, 787.25, 0.000, 0.000, 0.000, 19:04:27.356, 1560787467356
11, -7489.73, -9221.97, 8664.63, 8665.44, 4472.54, 4332.80, 5413.03, 821.38, 0.000, 0.000, 0.000, 19:04:27.356, 1560787467356
12, -7572.55, -9307.09, 8667.98, 8642.10, 4471.98, 4362.12, 5328.57, 794.58, 0.000, 0.000, 0.000, 19:04:27.356, 1560787467356
13, -7693.29, -9441.42, 8649.12, 8586.82, 4448.87, 4352.09, 5208.25, 715.03, 0.000, 0.000, 0.000, 19:04:27.356, 1560787467356
14, -7644.68, -9360.44, 8587.12, 8573.10, 4403.92, 4265.63, 5280.31, 690.96, 0.000, 0.000, 0.000, 19:04:27.356, 1560787467356
15, -7489.89, -9188.02, 8622.12, 8652.87, 4432.82, 4280.78, 5428.43, 788.82, 0.000, 0.000, 0.000, 19:04:27.356, 1560787467356
16, -7495.86, -9226.08, 8671.02, 8672.59, 4466.62, 4334.63, 5405.77, 815.08, 0.000, 0.000, 0.000, 19:04:27.356, 1560787467356
17, -7578.67, -9328.19, 8684.01, 8649.25, 4464.38, 4359.86, 5315.27, 780.57, 0.000, 0.000, 0.000, 19:04:27.356, 1560787467356
18, -7703.64, -9471.44, 8643.29, 8578.64, 4444.11, 4347.53, 5197.88, 698.13, 0.004, 0.060, -1.032, 19:04:27.356, 1560787467356
19, -7653.75, -9378.55, 8589.46, 8555.76, 4399.67, 4261.38, 5273.89, 677.12, 0.000, 0.000, 0.000, 19:04:27.356, 1560787467356
20, -7491.95, -9162.23, 8615.12, 8614.27, 4418.83, 4269.25, 5420.77, 773.01, 0.000, 0.000, 0.000, 19:04:27.356, 1560787467356
21, -7477.02, -9165.35, 8663.83, 8644.56, 4471.40, 4332.21, 5417.30, 815.53, 0.000, 0.000, 0.000, 19:04:27.356, 1560787467356
22, -7559.96, -9326.58, 8677.71, 8657.84, 4483.67, 4374.04, 5342.87, 798.52, 0.000, 0.000, 0.000, 19:04:27.356, 1560787467356
23, -7699.04, -9481.43, 8646.57, 8593.60, 4457.00, 4361.85, 5218.77, 717.33, 0.000, 0.000, 0.000, 19:04:27.357, 1560787467357
24, -7639.96, -9391.04, 8597.17, 8567.02, 4414.27, 4273.70, 5291.17, 697.55, 0.000, 0.000, 0.000, 19:04:27.357, 1560787467357
25, -7493.42, -9227.72, 8623.10, 8640.33, 4431.37, 4273.63, 5424.43, 780.23, 0.000, 0.000, 0.000, 19:04:27.357, 1560787467357
26, -7496.22, -9233.06, 8679.18, 8696.28, 4477.77, 4340.51, 5414.11, 816.04, 0.000, 0.000, 0.000, 19:04:27.357, 1560787467357
27, -7566.04, -9296.07, 8696.33, 8651.87, 4483.96, 4372.00, 5332.03, 790.20, 0.000, 0.000, 0.000, 19:04:27.357, 1560787467357
28, -7701.87, -9438.45, 8656.96, 8564.85, 4450.41, 4352.22, 5195.48, 697.44, 0.004, 0.060, -1.030, 19:04:27.357, 1560787467357
29, -7643.83, -9377.70, 8604.28, 8563.58, 4407.65, 4267.91, 5265.27, 675.92, 0.000, 0.000, 0.000, 19:04:27.357, 1560787467357
30, -7485.17, -9211.60, 8631.04, 8646.35, 4430.88, 4277.14, 5403.04, 770.38, 0.000, 0.000, 0.000, 19:04:27.357, 1560787467357
31, -7492.84, -9225.30, 8675.16, 8669.24, 4463.31, 4329.85, 5387.53, 804.26, 0.000, 0.000, 0.000, 19:04:27.357, 1560787467357
32, -7578.87, -9307.24, 8663.98, 8630.86, 4454.99, 4351.12, 5293.25, 768.63, 0.000, 0.000, 0.000, 19:04:27.357, 1560787467357
33, -7699.86, -9434.92, 8636.54, 8580.03, 4433.83, 4345.83, 5195.24, 700.10, 0.000, 0.000, 0.000, 19:04:27.357, 1560787467357
34, -7642.96, -9361.49, 8590.96, 8567.85, 4393.95, 4267.35, 5283.08, 684.50, 0.000, 0.000, 0.000, 19:04:27.357, 1560787467357
35, -7501.33, -9199.67, 8615.41, 8646.57, 4409.98, 4271.49, 5417.30, 770.78, 0.000, 0.000, 0.000, 19:04:27.357, 1560787467357
36, -7493.91, -9192.24, 8661.50, 8672.07, 4459.31, 4333.65, 5413.46, 810.09, 0.000, 0.000, 0.000, 19:04:27.357, 1560787467357
37, -7564.66, -9311.45, 8679.50, 8677.44, 4469.81, 4373.90, 5339.52, 792.28, 0.000, 0.000, 0.000, 19:04:27.357, 1560787467357
38, -7706.52, -9462.03, 8667.04, 8610.41, 4440.35, 4362.81, 5212.45, 711.61, 0.000, 0.058, -1.034, 19:04:27.357, 1560787467357
39, -7641.30, -9363.17, 8604.71, 8586.96, 4404.88, 4283.02, 5286.88, 696.59, 0.000, 0.000, 0.000, 19:04:27.357, 1560787467357
40, -7484.06, -9169.22, 8622.43, 8633.20, 4427.79, 4289.55, 5429.17, 786.36, 0.000, 0.000, 0.000, 19:04:27.357, 1560787467357
41, -7486.78, -9200.94, 8673.13, 8678.04, 4473.46, 4353.85, 5419.16, 820.85, 0.000, 0.000, 0.000, 19:04:27.357, 1560787467357
42, -7556.28, -9306.68, 8686.67, 8676.90, 4482.93, 4393.03, 5343.83, 796.82, 0.000, 0.000, 0.000, 19:04:27.357, 1560787467357
43, -7683.90, -9438.09, 8661.46, 8607.77, 4458.52, 4383.85, 5221.66, 718.56, 0.000, 0.000, 0.000, 19:04:27.357, 1560787467357
44, -7644.30, -9366.88, 8606.72, 8589.82, 4415.14, 4295.69, 5288.49, 698.13, 0.000, 0.000, 0.000, 19:04:27.357, 1560787467357
45, -7492.68, -9213.61, 8629.92, 8659.80, 4433.00, 4296.21, 5429.48, 789.06, 0.000, 0.000, 0.000, 19:04:27.357, 1560787467357
46, -7486.94, -9227.81, 8673.13, 8681.28, 4469.45, 4350.28, 5419.16, 823.73, 0.000, 0.000, 0.000, 19:04:27.357, 1560787467357
47, -7563.96, -9312.67, 8679.00, 8661.43, 4470.33, 4379.85, 5340.08, 799.63, 0.000, 0.000, 0.000, 19:04:27.357, 1560787467357
48, -7693.00, -9452.40, 8650.71, 8587.34, 4442.21, 4365.41, 5211.13, 715.35, -0.006, 0.060, -1.032, 19:04:27.357, 1560787467357
49, -7644.99, -9345.44, 8597.35, 8565.50, 4396.23, 4276.31, 5273.98, 688.57, 0.000, 0.000, 0.000, 19:04:27.357, 1560787467357
50, -7484.19, -9160.39, 8639.78, 8644.13, 4418.18, 4281.16, 5414.93, 778.18, 0.000, 0.000, 0.000, 19:04:27.357, 1560787467357
51, -7482.18, -9201.50, 8670.73, 8679.67, 4460.85, 4346.99, 5408.23, 816.91, 0.000, 0.000, 0.000, 19:04:27.357, 1560787467357
52, -7557.84, -9300.61, 8683.83, 8676.30, 4474.89, 4390.64, 5341.87, 801.40, 0.000, 0.000, 0.000, 19:04:27.357, 1560787467357
53, -7690.21, -9442.38, 8659.42, 8617.36, 4456.67, 4388.03, 5229.88, 727.57, 0.000, 0.000, 0.000, 19:04:27.357, 1560787467357
54, -7644.90, -9358.41, 8600.01, 8595.61, 4405.44, 4297.59, 5288.18, 698.69, 0.000, 0.000, 0.000, 19:04:27.358, 1560787467358
55, -7480.28, -9164.68, 8629.70, 8667.58, 4428.19, 4304.25, 5434.47, 790.94, 0.000, 0.000, 0.000, 19:04:27.358, 1560787467358
56, -7477.19, -9180.24, 8674.24, 8697.64, 4466.12, 4359.66, 5416.01, 821.90, 0.000, 0.000, 0.000, 19:04:27.358, 1560787467358
57, -7548.41, -9291.04, 8685.51, 8691.07, 4473.50, 4396.03, 5329.97, 798.96, 0.000, 0.000, 0.000, 19:04:27.358, 1560787467358
58, -7680.55, -9433.64, 8661.30, 8623.17, 4447.73, 4389.41, 5208.43, 721.49, 0.002, 0.058, -1.042, 19:04:27.358, 1560787467358
59, -7639.65, -9339.59, 8608.51, 8592.41, 4401.93, 4300.10, 5279.48, 697.55, 0.000, 0.000, 0.000, 19:04:27.358, 1560787467358
60, -7484.64, -9185.49, 8634.59, 8659.07, 4423.32, 4302.87, 5429.75, 790.09, 0.000, 0.000, 0.000, 19:04:27.358, 1560787467358
61, -7492.57, -9211.73, 8681.89, 8695.57, 4466.79, 4359.69, 5427.43, 827.55, 0.000, 0.000, 0.000, 19:04:27.358, 1560787467358
62, -7565.48, -9297.52, 8687.36, 8697.87, 4476.56, 4394.87, 5351.52, 800.82, 0.000, 0.000, 0.000, 19:04:27.358, 1560787467358
63, -7689.02, -9436.77, 8652.00, 8607.83, 4456.69, 4388.16, 5230.06, 720.87, 0.000, 0.000, 0.000, 19:04:27.358, 1560787467358
64, -7642.55, -9362.27, 8603.21, 8567.22, 4414.58, 4297.93, 5286.34, 690.69, 0.000, 0.000, 0.000, 19:04:27.358, 1560787467358
65, -7478.38, -9171.52, 8620.13, 8651.53, 4435.28, 4298.98, 5432.08, 781.08, 0.000, 0.000, 0.000, 19:04:27.358, 1560787467358
66, -7479.61, -9175.61, 8668.65, 8687.03, 4472.16, 4349.02, 5416.14, 812.62, 0.000, 0.000, 0.000, 19:04:27.358, 1560787467358
67, -7564.10, -9307.02, 8677.68, 8666.64, 4477.41, 4378.17, 5334.24, 785.26, 0.000, 0.000, 0.000, 19:04:27.358, 1560787467358
68, -7703.95, -9479.13, 8642.03, 8597.71, 4446.79, 4364.31, 5199.57, 699.74, 0.002, 0.056, -1.038, 19:04:27.358, 1560787467358
69, -7657.98, -9390.86, 8594.09, 8570.20, 4404.34, 4278.93, 5265.42, 677.79, 0.000, 0.000, 0.000, 19:04:27.358, 1560787467358
70, -7497.13, -9208.45, 8629.14, 8647.40, 4424.95, 4278.95, 5410.89, 765.59, 0.000, 0.000, 0.000, 19:04:27.358, 1560787467358
71, -7488.10, -9213.68, 8674.94, 8682.87, 4468.96, 4338.90, 5400.07, 800.21, 0.000, 0.000, 0.000, 19:04:27.358, 1560787467358
72, -7548.54, -9292.25, 8687.47, 8672.70, 4477.97, 4376.78, 5333.35, 783.50, 0.000, 0.000, 0.000, 19:04:27.358, 1560787467358
73, -7664.57, -9419.45, 8670.24, 8604.55, 4455.17, 4374.66, 5208.56, 705.69, 0.000, 0.000, 0.000, 19:04:27.358, 1560787467358
74, -7641.30, -9343.61, 8597.78, 8563.09, 4402.89, 4281.92, 5254.54, 671.98, 0.000, 0.000, 0.000, 19:04:27.358, 1560787467358
75, -7494.99, -9177.58, 8621.00, 8651.22, 4420.71, 4281.77, 5400.20, 758.98, 0.000, 0.000, 0.000, 19:04:27.358, 1560787467358
76, -7487.66, -9217.61, 8672.30, 8693.35, 4462.64, 4345.25, 5404.07, 801.29, 0.000, 0.000, 0.000, 19:04:27.358, 1560787467358
77, -7555.92, -9310.19, 8683.43, 8678.47, 4468.43, 4380.07, 5330.20, 780.41, 0.000, 0.000, 0.000, 19:04:27.358, 1560787467358
78, -7684.13, -9437.55, 8655.91, 8620.75, 4442.10, 4372.20, 5200.45, 702.85, 0.002, 0.062, -1.038, 19:04:27.358, 1560787467358
79, -7648.74, -9357.31, 8587.45, 8591.07, 4385.75, 4277.19, 5253.40, 664.56, 0.000, 0.000, 0.000, 19:04:27.358, 1560787467358
80, -7482.72, -9188.73, 8616.33, 8667.72, 4411.25, 4284.00, 5425.28, 768.01, 0.000, 0.000, 0.000, 19:04:27.358, 1560787467358
81, -7470.51, -9201.68, 8680.30, 8696.06, 4455.33, 4343.57, 5419.54, 811.66, 0.000, 0.000, 0.000, 19:04:27.358, 1560787467358
82, -7550.28, -9284.87, 8673.48, 8664.63, 4466.01, 4376.52, 5347.59, 793.84, 0.000, 0.000, 0.000, 19:04:27.358, 1560787467358
83, -7682.83, -9423.29, 8646.84, 8583.58, 4444.11, 4369.16, 5221.52, 719.32, 0.000, 0.000, 0.000, 19:04:27.358, 1560787467358
84, -7650.13, -9358.43, 8600.12, 8567.11, 4394.91, 4280.54, 5263.52, 686.42, 0.000, 0.000, 0.000, 19:04:27.358, 1560787467358
85, -7493.02, -9192.04, 8614.47, 8658.53, 4417.89, 4286.24, 5406.10, 777.08, 0.000, 0.000, 0.000, 19:04:27.358, 1560787467358
86, -7473.80, -9166.76, 8669.62, 8682.62, 4467.51, 4347.93, 5429.53, 824.29, 0.000, 0.000, 0.000, 19:04:27.359, 1560787467359
87, -7556.83, -9288.29, 8681.71, 8664.18, 4473.30, 4379.73, 5348.03, 793.91, 0.000, 0.000, 0.000, 19:04:27.359, 1560787467359
88, -7680.93, -9454.94, 8665.59, 8617.51, 4457.18, 4384.70, 5217.63, 718.07, 0.002, 0.056, -1.034, 19:04:27.359, 1560787467359
89, -7642.73, -9361.71, 8612.86, 8587.18, 4408.95, 4301.39, 5263.70, 680.92, 0.000, 0.000, 0.000, 19:04:27.359, 1560787467359
90, -7483.56, -9173.65, 8630.50, 8665.97, 4424.64, 4304.25, 5400.67, 765.75, 0.000, 0.000, 0.000, 19:04:27.359, 1560787467359
91, -7484.28, -9204.58, 8688.41, 8707.39, 4463.91, 4362.37, 5399.65, 804.31, 0.000, 0.000, 0.000, 19:04:27.359, 1560787467359
92, -7552.70, -9306.01, 8703.63, 8699.59, 4473.61, 4401.30, 5343.43, 790.63, 0.000, 0.000, 0.000, 19:04:27.359, 1560787467359
93, -7675.81, -9439.72, 8653.72, 8624.22, 4447.91, 4395.31, 5212.74, 715.19, 0.000, 0.000, 0.000, 19:04:27.359, 1560787467359
94, -7655.45, -9373.25, 8576.65, 8568.59, 4385.55, 4292.61, 5247.43, 667.02, 0.000, 0.000, 0.000, 19:04:27.359, 1560787467359
95, -7510.28, -9213.25, 8603.52, 8645.68, 4399.29, 4286.30, 5394.50, 753.77, 0.000, 0.000, 0.000, 19:04:27.359, 1560787467359
96, -7505.85, -9222.42, 8655.89, 8672.90, 4439.48, 4341.94, 5391.78, 795.28, 0.000, 0.000, 0.000, 19:04:27.359, 1560787467359
97, -7574.65, -9300.87, 8652.99, 8671.52, 4449.18, 4373.36, 5330.69, 778.71, 0.000, 0.000, 0.000, 19:04:27.359, 1560787467359
98, -7713.97, -9415.78, 8632.82, 8578.29, 4428.08, 4369.36, 5209.81, 701.91, 0.004, 0.052, -1.038, 19:04:27.359, 1560787467359
99, -7683.01, -9403.38, 8592.55, 8570.46, 4382.64, 4286.19, 5258.83, 668.18, 0.000, 0.000, 0.000, 19:04:27.359, 1560787467359
100, -7542.95, -9275.30, 8604.73, 8634.17, 4388.50, 4275.20, 5397.90, 748.81, 0.000, 0.000, 0.000, 19:04:27.359, 1560787467359
101, -7550.96, -9280.71, 8635.95, 8659.74, 4428.06, 4325.98, 5386.95, 784.50, 0.000, 0.000, 0.000, 19:04:27.359, 1560787467359
102, -7625.90, -9374.32, 8651.80, 8641.47, 4439.93, 4358.12, 5316.36, 765.90, 0.000, 0.000, 0.000, 19:04:27.359, 1560787467359
103, -7742.85, -9486.30, 8632.80, 8570.71, 4425.91, 4353.87, 5190.59, 691.18, 0.000, 0.000, 0.000, 19:04:27.359, 1560787467359
104, -7717.74, -9430.69, 8567.62, 8529.87, 4371.84, 4254.34, 5222.28, 644.53, 0.000, 0.000, 0.000, 19:04:27.359, 1560787467359
105, -7550.69, -9268.75, 8586.04, 8620.51, 4392.86, 4253.16, 5382.99, 741.21, 0.000, 0.000, 0.000, 19:04:27.831, 1560787467831
106, -7538.53, -9264.51, 8627.68, 8646.77, 4434.76, 4312.66, 5394.21, 784.88, 0.000, 0.000, 0.000, 19:04:27.831, 1560787467831
107, -7606.86, -9358.36, 8642.77, 8620.04, 4438.36, 4340.80, 5316.97, 760.00, 0.000, 0.000, 0.000, 19:04:27.831, 1560787467831
108, -7734.80, -9526.80, 8631.04, 8562.44, 4409.80, 4333.06, 5184.08, 678.93, 0.008, 0.056, -1.034, 19:04:27.831, 1560787467831
109, -7710.21, -9454.23, 8568.90, 8523.90, 4356.56, 4242.81, 5232.61, 641.14, 0.000, 0.000, 0.000, 19:04:27.831, 1560787467831
110, -7547.47, -9250.05, 8571.27, 8617.25, 4374.86, 4247.35, 5386.73, 735.26, 0.000, 0.000, 0.000, 19:04:27.831, 1560787467831
111, -7528.56, -9246.96, 8627.42, 8656.72, 4425.49, 4313.77, 5393.43, 786.42, 0.000, 0.000, 0.000, 19:04:27.831, 1560787467831
112, -7591.14, -9320.43, 8646.12, 8641.21, 4439.75, 4352.02, 5332.99, 774.67, 0.000, 0.000, 0.000, 19:04:27.831, 1560787467831
113, -7714.75, -9458.95, 8620.13, 8577.12, 4416.55, 4351.57, 5206.57, 700.48, 0.000, 0.000, 0.000, 19:04:27.831, 1560787467831
114, -7693.18, -9407.67, 8560.81, 8546.14, 4363.17, 4260.49, 5245.22, 659.24, 0.000, 0.000, 0.000, 19:04:27.831, 1560787467831
115, -7541.68, -9219.65, 8580.41, 8619.79, 4366.82, 4246.07, 5369.81, 733.32, 0.000, 0.000, 0.000, 19:04:27.831, 1560787467831
116, -7522.61, -9224.34, 8631.15, 8645.48, 4413.33, 4307.61, 5373.29, 774.55, 0.000, 0.000, 0.000, 19:04:27.831, 1560787467831
117, -7591.26, -9309.17, 8653.46, 8635.84, 4426.34, 4346.74, 5328.01, 764.47, 0.002, 0.060, -1.034, 19:04:27.831, 1560787467831
118, -7705.96, -9460.53, 8645.18, 8598.22, 4413.87, 4354.59, 5209.57, 695.94, 0.000, 0.000, 0.000, 19:04:27.831, 1560787467831
119, -7683.64, -9403.24, 8575.04, 8559.85, 4367.96, 4266.57, 5245.51, 656.98, 0.000, 0.000, 0.000, 19:04:27.832, 1560787467832
120, -7532.40, -9216.36, 8580.81, 8617.60, 4374.24, 4252.26, 5371.66, 731.97, 0.000, 0.000, 0.000, 19:04:27.832, 1560787467832
121, -7518.17, -9221.08, 8633.83, 8657.41, 4413.93, 4309.33, 5371.06, 771.96, 0.000, 0.000, 0.000, 19:04:27.832, 1560787467832
122, -7575.43, -9310.53, 8638.73, 8629.14, 4425.40, 4346.50, 5315.98, 760.76, 0.000, 0.000, 0.000, 19:04:27.832, 1560787467832
123, -7699.64, -9466.66, 8610.65, 8563.15, 4407.85, 4343.82, 5194.30, 686.40, 0.000, 0.000, 0.000, 19:04:27.832, 1560787467832
124, -7685.36, -9400.43, 8564.23, 8550.39, 4368.16, 4261.85, 5245.44, 656.38, 0.000, 0.000, 0.000, 19:04:27.832, 1560787467832
125, -7539.49, -9234.47, 8594.25, 8618.83, 4382.69, 4253.60, 5390.86, 742.88, 0.000, 0.000, 0.000, 19:04:27.832, 1560787467832
126, -7526.41, -9240.30, 8646.39, 8652.78, 4423.68, 4310.65, 5388.60, 784.52, 0.000, 0.000, 0.000, 19:04:27.832, 1560787467832
127, -7588.80, -9329.30, 8650.19, 8637.97, 4434.38, 4350.16, 5318.42, 766.82, 0.002, 0.060, -1.034, 19:04:27.832, 1560787467832
128, -7708.89, -9467.86, 8631.15, 8569.79, 4418.92, 4356.35, 5203.33, 702.14, 0.000, 0.000, 0.000, 19:04:27.832, 1560787467832
129, -7687.88, -9407.80, 8575.83, 8528.44, 4365.50, 4262.01, 5250.18, 666.19, 0.000, 0.000, 0.000, 19:04:27.832, 1560787467832
130, -7525.09, -9225.03, 8597.06, 8621.04, 4380.11, 4255.35, 5406.86, 759.13, 0.000, 0.000, 0.000, 19:04:27.832, 1560787467832
131, -7521.05, -9240.21, 8624.53, 8652.83, 4418.07, 4312.25, 5402.15, 796.33, 0.000, 0.000, 0.000, 19:04:27.832, 1560787467832
132, -7586.49, -9342.25, 8629.02, 8625.40, 4423.37, 4338.09, 5320.36, 766.24, 0.000, 0.000, 0.000, 19:04:27.832, 1560787467832
133, -7709.14, -9496.05, 8605.96, 8566.51, 4408.48, 4344.71, 5195.77, 691.56, 0.000, 0.000, 0.000, 19:04:27.832, 1560787467832
134, -7696.26, -9435.16, 8557.86, 8544.27, 4361.45, 4264.06, 5243.27, 652.96, 0.000, 0.000, 0.000, 19:04:27.832, 1560787467832
135, -7535.02, -9247.63, 8579.69, 8622.70, 4373.99, 4257.38, 5393.83, 739.91, 0.000, 0.000, 0.000, 19:04:27.832, 1560787467832
136, -7521.94, -9246.83, 8628.98, 8643.44, 4412.41, 4310.56, 5384.47, 776.43, 0.000, 0.000, 0.000, 19:04:27.833, 1560787467833
137, -7601.29, -9322.98, 8644.29, 8626.05, 4421.35, 4342.30, 5309.19, 755.51, 0.004, 0.060, -1.028, 19:04:27.833, 1560787467833
138, -7721.92, -9454.63, 8622.61, 8576.54, 4404.21, 4344.33, 5188.15, 687.92, 0.000, 0.000, 0.000, 19:04:27.833, 1560787467833
139, -7693.90, -9413.59, 8563.47, 8530.43, 4359.77, 4258.90, 5239.05, 656.69, 0.000, 0.000, 0.000, 19:04:27.833, 1560787467833
140, -7532.16, -9247.41, 8578.44, 8608.42, 4370.62, 4246.52, 5389.34, 741.01, 0.000, 0.000, 0.000, 19:04:27.833, 1560787467833
141, -7526.97, -9256.28, 8619.17, 8645.32, 4407.56, 4296.25, 5378.77, 777.19, 0.000, 0.000, 0.000, 19:04:27.833, 1560787467833
142, -7603.64, -9330.85, 8636.60, 8610.36, 4413.22, 4325.31, 5307.38, 755.51, 0.000, 0.000, 0.000, 19:04:27.833, 1560787467833
143, -7723.11, -9467.15, 8608.73, 8534.43, 4401.30, 4327.41, 5191.28, 685.98, 0.000, 0.000, 0.000, 19:04:27.833, 1560787467833
144, -7695.28, -9430.63, 8544.04, 8527.95, 4358.90, 4243.88, 5230.53, 647.51, 0.000, 0.000, 0.000, 19:04:27.833, 1560787467833
145, -7528.04, -9256.86, 8562.84, 8606.87, 4378.06, 4241.62, 5386.88, 739.78, 0.000, 0.000, 0.000, 19:04:27.834, 1560787467834
146, -7525.00, -9252.68, 8622.30, 8641.09, 4416.79, 4300.52, 5392.20, 784.26, 0.000, 0.000, 0.000, 19:04:27.834, 1560787467834
147, -7603.77, -9334.33, 8645.97, 8609.29, 4420.30, 4329.47, 5317.50, 763.38, -0.002, 0.056, -1.028, 19:04:27.834, 1560787467834
148, -7728.54, -9471.82, 8598.04, 8539.42, 4400.34, 4323.86, 5188.82, 688.63, 0.000, 0.000, 0.000, 19:04:27.834, 1560787467834
149, -7702.99, -9430.22, 8542.28, 8523.41, 4356.76, 4242.65, 5232.52, 650.06, 0.000, 0.000, 0.000, 19:04:27.834, 1560787467834
150, -7546.22, -9273.11, 8561.43, 8593.71, 4371.69, 4236.01, 5379.22, 733.54, 0.000, 0.000, 0.000, 19:04:27.834, 1560787467834
151, -7528.98, -9276.24, 8618.34, 8637.00, 4414.72, 4296.03, 5385.05, 780.66, 0.000, 0.000, 0.000, 19:04:27.834, 1560787467834
152, -7594.76, -9352.71, 8631.26, 8620.29, 4425.18, 4329.53, 5327.05, 768.97, 0.000, 0.000, 0.000, 19:04:27.834, 1560787467834
153, -7733.64, -9502.62, 8607.12, 8539.62, 4397.95, 4322.09, 5188.96, 686.44, 0.000, 0.000, 0.000, 19:04:27.834, 1560787467834
154, -7719.89, -9454.63, 8553.14, 8498.94, 4347.21, 4235.63, 5217.84, 642.37, 0.000, 0.000, 0.000, 19:04:27.834, 1560787467834
155, -7542.28, -9251.23, 8577.77, 8580.45, 4365.61, 4233.67, 5373.49, 735.77, 0.000, 0.000, 0.000, 19:04:27.834, 1560787467834
156, -7510.43, -9243.59, 8633.47, 8641.14, 4414.47, 4302.53, 5393.34, 791.50, 0.000, 0.000, 0.000, 19:04:27.834, 1560787467834
157, -7595.66, -9353.11, 8621.69, 8621.16, 4417.31, 4330.40, 5309.50, 764.12, 0.002, 0.056, -1.026, 19:04:27.834, 1560787467834
158, -7736.07, -9505.46, 8593.78, 8551.73, 4390.22, 4322.18, 5179.57, 685.28, 0.000, 0.000, 0.000, 19:04:27.834, 1560787467834
159, -7716.27, -9451.26, 8534.50, 8502.20, 4334.92, 4230.98, 5218.31, 643.19, 0.000, 0.000, 0.000, 19:04:27.834, 1560787467834
160, -7549.55, -9257.11, 8558.33, 8584.95, 4349.78, 4227.30, 5365.94, 730.88, 0.000, 0.000, 0.000, 19:04:27.834, 1560787467834
161, -7534.95, -9248.95, 8608.17, 8623.55, 4392.77, 4284.36, 5359.64, 766.06, 0.000, 0.000, 0.000, 19:04:27.835, 1560787467835
162, -7596.40, -9334.24, 8629.36, 8611.90, 4411.81, 4320.99, 5304.83, 749.05, 0.000, 0.000, 0.000, 19:04:27.835, 1560787467835
163, -7709.52, -9490.71, 8620.44, 8567.74, 4396.30, 4322.56, 5186.12, 677.01, 0.000, 0.000, 0.000, 19:04:27.835, 1560787467835
164, -7686.05, -9438.31, 8560.11, 8488.70, 4344.08, 4227.39, 5208.76, 625.94, 0.000, 0.000, 0.000, 19:04:27.841, 1560787467841
165, -7543.87, -9271.77, 8562.53, 8561.81, 4346.14, 4208.59, 5341.82, 699.34, 0.000, 0.000, 0.000, 19:04:27.841, 1560787467841
166, -7556.61, -9297.68, 8594.42, 8624.73, 4390.51, 4269.70, 5345.38, 742.59, 0.000, 0.000, 0.000, 19:04:27.841, 1560787467841
167, -7627.76, -9388.42, 8603.43, 8599.03, 4403.32, 4306.42, 5294.37, 729.90, 0.004, 0.060, -1.024, 19:04:27.841, 1560787467841
168, -7753.53, -9526.85, 8585.93, 8540.09, 4386.40, 4313.22, 5168.13, 659.35, 0.000, 0.000, 0.000, 19:04:27.841, 1560787467841
169, -7728.43, -9461.63, 8539.22, 8514.96, 4346.43, 4239.14, 5204.89, 624.24, 0.000, 0.000, 0.000, 19:04:27.842, 1560787467842
170, -7566.98, -9253.49, 8550.17, 8582.80, 4350.30, 4224.70, 5352.17, 705.40, 0.000, 0.000, 0.000, 19:04:27.842, 1560787467842
171, -7536.40, -9256.66, 8602.25, 8613.47, 4396.50, 4290.84, 5363.17, 756.63, 0.000, 0.000, 0.000, 19:04:27.842, 1560787467842
172, -7599.97, -9366.59, 8625.43, 8619.79, 4417.46, 4339.86, 5308.94, 754.39, 0.000, 0.000, 0.000, 19:04:27.842, 1560787467842
173, -7727.58, -9488.32, 8612.42, 8552.40, 4404.37, 4344.53, 5192.82, 691.81, 0.000, 0.000, 0.000, 19:04:27.842, 1560787467842
174, -7722.06, -9446.32, 8558.21, 8507.07, 4356.73, 4256.33, 5226.93, 650.95, 0.000, 0.000, 0.000, 19:04:27.842, 1560787467842
175, -7572.12, -9282.92, 8555.46, 8588.57, 4366.55, 4244.17, 5380.22, 736.78, 0.000, 0.000, 0.000, 19:04:27.842, 1560787467842
176, -7554.91, -9292.54, 8605.89, 8626.72, 4409.84, 4300.72, 5388.65, 785.71, 0.000, 0.000, 0.000, 19:04:27.842, 1560787467842
177, -7616.40, -9376.49, 8617.25, 8615.90, 4419.48, 4334.65, 5324.72, 769.73, 0.004, 0.056, -1.030, 19:04:27.842, 1560787467842
178, -7738.24, -9507.40, 8603.77, 8559.58, 4404.43, 4345.20, 5200.18, 700.79, 0.000, 0.000, 0.000, 19:04:27.842, 1560787467842
179, -7729.37, -9465.11, 8552.25, 8525.29, 4348.93, 4256.53, 5223.65, 651.80, 0.000, 0.000, 0.000, 19:04:27.842, 1560787467842
180, -7561.44, -9280.06, 8570.58, 8584.61, 4350.41, 4237.82, 5370.92, 731.21, 0.000, 0.000, 0.000, 19:04:27.842, 1560787467842
181, -7543.49, -9266.23, 8600.26, 8632.51, 4396.39, 4298.31, 5384.85, 784.64, 0.000, 0.000, 0.000, 19:04:27.842, 1560787467842
182, -7608.11, -9344.46, 8604.01, 8582.31, 4402.22, 4327.99, 5317.35, 765.75, 0.000, 0.000, 0.000, 19:04:27.842, 1560787467842
183, -7743.07, -9508.92, 8577.79, 8536.20, 4379.27, 4327.16, 5189.92, 689.64, 0.000, 0.000, 0.000, 19:04:27.842, 1560787467842
184, -7737.77, -9472.94, 8530.14, 8497.62, 4332.48, 4237.76, 5225.48, 644.22, 0.000, 0.000, 0.000, 19:04:27.842, 1560787467842
185, -7579.23, -9286.37, 8537.54, 8560.81, 4340.10, 4218.27, 5380.02, 725.92, 0.000, 0.000, 0.000, 19:04:27.842, 1560787467842
186, -7543.11, -9267.39, 8597.78, 8646.21, 4394.11, 4288.92, 5395.46, 785.15, 0.000, 0.000, 0.000, 19:04:27.842, 1560787467842
187, -7606.61, -9332.57, 8607.39, 8602.02, 4402.02, 4315.99, 5319.36, 760.09, 0.008, 0.054, -1.030, 19:04:27.842, 1560787467842
188, -7740.70, -9494.75, 8579.92, 8510.56, 4376.74, 4311.83, 5181.34, 679.58, 0.000, 0.000, 0.000, 19:04:27.842, 1560787467842
189, -7746.38, -9492.88, 8523.90, 8493.37, 4326.18, 4230.09, 5208.11, 634.19, 0.000, 0.000, 0.000, 19:04:27.843, 1560787467843
190, -7584.19, -9303.78, 8534.54, 8577.42, 4343.64, 4224.61, 5373.90, 726.01, 0.000, 0.000, 0.000, 19:04:27.843, 1560787467843
191, -7551.67, -9292.78, 8611.12, 8629.63, 4401.37, 4296.72, 5392.49, 783.94, 0.000, 0.000, 0.000, 19:04:27.843, 1560787467843
192, -7614.81, -9365.31, 8622.50, 8621.74, 4419.81, 4335.55, 5324.32, 764.59, 0.000, 0.000, 0.000, 19:04:27.843, 1560787467843
193, -7738.20, -9500.27, 8597.67, 8548.54, 4399.92, 4334.96, 5191.80, 688.30, 0.000, 0.000, 0.000, 19:04:27.843, 1560787467843
194, -7730.55, -9457.27, 8543.40, 8502.04, 4349.16, 4246.59, 5211.11, 637.56, 0.000, 0.000, 0.000, 19:04:27.843, 1560787467843
195, -7575.36, -9276.38, 8541.70, 8580.66, 4357.61, 4232.82, 5368.91, 721.60, 0.000, 0.000, 0.000, 19:04:27.843, 1560787467843
196, -7553.59, -9264.73, 8595.59, 8621.80, 4406.71, 4296.92, 5399.20, 781.55, 0.000, 0.000, 0.000, 19:04:27.843, 1560787467843
197, -7618.97, -9326.09, 8617.67, 8613.18, 4412.41, 4329.18, 5330.13, 765.57, 0.006, 0.058, -1.032, 19:04:27.843, 1560787467843
198, -7730.55, -9488.29, 8609.76, 8562.75, 4403.07, 4345.45, 5212.92, 706.52, 0.000, 0.000, 0.000, 19:04:27.843, 1560787467843
199, -7730.75, -9468.65, 8534.30, 8525.58, 4351.73, 4263.17, 5234.02, 657.14, 0.000, 0.000, 0.000, 19:04:27.843, 1560787467843
200, -7578.05, -9285.27, 8540.56, 8591.99, 4357.88, 4245.38, 5386.52, 735.91, 0.000, 0.000, 0.000, 19:04:27.843, 1560787467843
201, -7550.44, -9262.41, 8600.03, 8635.69, 4404.99, 4308.83, 5407.87, 791.88, 0.000, 0.000, 0.000, 19:04:27.843, 1560787467843
202, -7613.21, -9352.28, 8613.71, 8626.16, 4413.20, 4344.60, 5341.69, 777.37, 0.000, 0.000, 0.000, 19:04:27.843, 1560787467843
203, -7738.22, -9497.52, 8595.59, 8576.52, 4397.57, 4349.07, 5208.22, 703.81, 0.000, 0.000, 0.000, 19:04:27.843, 1560787467843
204, -7736.21, -9453.96, 8534.70, 8514.41, 4342.34, 4258.88, 5221.21, 647.60, 0.000, 0.000, 0.000, 19:04:27.843, 1560787467843
205, -7575.59, -9272.51, 8547.15, 8580.81, 4350.14, 4239.88, 5375.50, 729.05, 0.000, 0.000, 0.000, 19:04:27.843, 1560787467843
206, -7555.49, -9278.90, 8593.98, 8621.09, 4392.36, 4296.63, 5380.38, 775.94, 0.000, 0.000, 0.000, 19:04:27.843, 1560787467843
207, -7618.77, -9342.00, 8608.51, 8609.74, 4407.29, 4333.91, 5323.20, 764.30, 0.004, 0.060, -1.032, 19:04:27.843, 1560787467843
208, -7739.16, -9487.20, 8604.17, 8541.74, 4392.81, 4337.15, 5201.97, 694.56, 0.000, 0.000, 0.000, 19:04:27.843, 1560787467843
209, -7737.15, -9462.97, 8548.18, 8493.42, 4341.13, 4244.66, 5222.19, 644.91, 0.000, 0.000, 0.000, 19:04:27.843, 1560787467843
210, -7574.49, -9264.06, 8551.84, 8572.05, 4351.08, 4227.61, 5375.44, 728.18, 0.000, 0.000, 0.000, 19:04:27.843, 1560787467843
211, -7547.16, -9272.64, 8611.59, 8617.13, 4400.92, 4292.59, 5388.38, 781.60, 0.000, 0.000, 0.000, 19:04:27.843, 1560787467843
212, -7609.72, -9350.81, 8621.49, 8615.68, 4414.20, 4333.91, 5323.69, 766.42, 0.000, 0.000, 0.000, 19:04:27.843, 1560787467843
213, -7727.40, -9486.15, 8590.07, 8563.09, 4402.80, 4345.27, 5205.01, 703.05, 0.000, 0.000, 0.000, 19:04:27.843, 1560787467843
214, -7732.09, -9466.41, 8537.65, 8508.55, 4351.59, 4256.46, 5222.13, 649.52, 0.000, 0.000, 0.000, 19:04:27.843, 1560787467843
215, -7570.76, -9282.81, 8557.14, 8582.76, 4362.97, 4240.93, 5381.83, 733.49, 0.000, 0.000, 0.000, 19:04:27.843, 1560787467843
216, -7541.79, -9271.55, 8612.66, 8628.91, 4409.60, 4303.52, 5397.34, 788.57, 0.000, 0.000, 0.000, 19:04:27.843, 1560787467843
217, -7602.99, -9344.57, 8612.82, 8613.60, 4419.48, 4338.45, 5328.34, 771.34, 0.006, 0.056, -1.040, 19:04:27.843, 1560787467843
218, -7729.17, -9486.24, 8613.49, 8554.55, 4409.19, 4346.90, 5202.39, 703.92, 0.000, 0.000, 0.000, 19:04:27.843, 1560787467843
219, -7729.32, -9453.87, 8552.40, 8498.58, 4348.84, 4249.83, 5200.80, 638.72, 0.000, 0.000, 0.000, 19:04:27.843, 1560787467843
220, -7556.10, -9269.18, 8560.25, 8572.47, 4358.55, 4233.08, 5370.86, 726.92, 0.000, 0.000, 0.000, 19:04:27.844, 1560787467844
221, -7535.02, -9266.27, 8604.24, 8620.38, 4405.51, 4294.37, 5402.28, 786.62, 0.000, 0.000, 0.000, 19:04:27.844, 1560787467844
222, -7613.14, -9344.95, 8608.26, 8607.95, 4408.57, 4327.86, 5329.93, 764.23, 0.000, 0.000, 0.000, 19:04:27.844, 1560787467844
223, -7738.29, -9491.38, 8593.62, 8534.03, 4380.92, 4329.22, 5189.81, 684.57, 0.000, 0.000, 0.000, 19:04:27.844, 1560787467844
224, -7727.60, -9470.57, 8536.22, 8507.99, 4335.52, 4250.21, 5217.14, 639.39, 0.000, 0.000, 0.000, 19:04:27.844, 1560787467844
225, -7562.69, -9276.67, 8546.48, 8592.70, 4346.43, 4238.63, 5379.82, 727.82, 0.000, 0.000, 0.000, 19:04:28.311, 1560787468311
226, -7538.55, -9265.40, 8599.36, 8629.70, 4389.08, 4296.54, 5387.84, 777.04, 0.010, 0.056, -1.030, 19:04:28.311, 1560787468311
227, -7607.57, -9346.31, 8600.39, 8596.82, 4388.79, 4316.93, 5302.82, 747.84, 0.000, 0.000, 0.000, 19:04:28.311, 1560787468311
228, -7720.83, -9463.04, 8596.41, 8539.77, 4378.06, 4324.57, 5170.58, 679.07, 0.000, 0.000, 0.000, 19:04:28.311, 1560787468311
229, -7725.19, -9427.29, 8542.81, 8494.98, 4324.75, 4245.51, 5195.35, 633.02, 0.000, 0.000, 0.000, 19:04:28.311, 1560787468311
230, -7572.99, -9270.30, 8548.29, 8578.35, 4331.63, 4233.55, 5366.83, 718.14, 0.000, 0.000, 0.000, 19:04:28.311, 1560787468311
231, -7536.63, -9266.23, 8586.96, 8637.18, 4392.21, 4304.14, 5391.60, 780.59, 0.000, 0.000, 0.000, 19:04:28.311, 1560787468311
232, -7611.10, -9356.82, 8595.81, 8623.06, 4399.90, 4334.29, 5326.60, 767.31, 0.000, 0.000, 0.000, 19:04:28.311, 1560787468311
233, -7753.53, -9505.68, 8577.71, 8551.02, 4380.05, 4336.57, 5196.31, 695.05, 0.000, 0.000, 0.000, 19:04:28.311, 1560787468311
234, -7750.49, -9470.81, 8519.57, 8507.39, 4331.83, 4252.15, 5214.93, 645.14, 0.000, 0.000, 0.000, 19:04:28.311, 1560787468311
235, -7583.79, -9281.38, 8531.55, 8580.90, 4340.37, 4235.10, 5375.21, 728.24, 0.000, 0.000, 0.000, 19:04:28.311, 1560787468311
236, -7564.28, -9275.44, 8582.64, 8637.41, 4387.49, 4296.77, 5390.03, 784.23, 0.006, 0.054, -1.032, 19:04:28.311, 1560787468311
237, -7615.84, -9340.10, 8599.19, 8602.96, 4400.52, 4330.05, 5326.76, 770.04, 0.000, 0.000, 0.000, 19:04:28.312, 1560787468312
238, -7736.88, -9475.22, 8586.40, 8541.07, 4387.36, 4339.35, 5205.43, 706.23, 0.000, 0.000, 0.000, 19:04:28.312, 1560787468312
239, -7742.15, -9452.53, 8529.40, 8505.53, 4336.28, 4254.19, 5215.87, 653.03, 0.000, 0.000, 0.000, 19:04:28.312, 1560787468312
240, -7578.07, -9269.80, 8543.26, 8583.83, 4342.25, 4235.05, 5367.08, 729.96, 0.000, 0.000, 0.000, 19:04:28.312, 1560787468312
241, -7545.55, -9265.00, 8588.19, 8623.28, 4388.81, 4293.95, 5386.93, 781.22, 0.000, 0.000, 0.000, 19:04:28.312, 1560787468312
242, -7606.52, -9317.59, 8618.81, 8589.28, 4399.02, 4326.96, 5327.40, 767.25, 0.000, 0.000, 0.000, 19:04:28.312, 1560787468312
243, -7734.08, -9485.21, 8584.75, 8531.53, 4374.01, 4328.06, 5192.38, 688.79, 0.000, 0.000, 0.000, 19:04:28.312, 1560787468312
244, -7730.89, -9485.21, 8516.64, 8495.94, 4328.95, 4250.83, 5211.73, 640.47, 0.000, 0.000, 0.000, 19:04:28.312, 1560787468312
245, -7571.79, -9296.81, 8532.84, 8586.42, 4345.96, 4241.91, 5384.38, 733.43, 0.000, 0.000, 0.000, 19:04:28.312, 1560787468312
246, -7550.98, -9280.24, 8583.99, 8636.56, 4385.30, 4295.69, 5393.16, 779.27, 0.008, 0.058, -1.032, 19:04:28.312, 1560787468312
247, -7616.92, -9357.54, 8589.35, 8611.50, 4388.00, 4320.35, 5320.14, 757.68, 0.000, 0.000, 0.000, 19:04:28.312, 1560787468312
248, -7744.83, -9497.05, 8571.00, 8540.53, 4368.22, 4326.69, 5190.66, 688.08, 0.000, 0.000, 0.000, 19:04:28.312, 1560787468312
249, -7746.82, -9483.44, 8514.87, 8495.05, 4319.09, 4240.57, 5194.84, 630.97, 0.000, 0.000, 0.000, 19:04:28.312, 1560787468312
250, -7581.29, -9298.42, 8536.78, 8568.29, 4326.38, 4223.14, 5356.73, 717.29, 0.000, 0.000, 0.000, 19:04:28.312, 1560787468312
251, -7540.61, -9266.72, 8594.02, 8612.78, 4381.28, 4289.97, 5387.22, 781.98, 0.000, 0.000, 0.000, 19:04:28.312, 1560787468312
252, -7608.58, -9328.12, 8594.49, 8589.95, 4396.88, 4323.14, 5326.00, 771.38, 0.000, 0.000, 0.000, 19:04:28.312, 1560787468312
253, -7733.79, -9469.18, 8576.34, 8543.19, 4379.00, 4325.49, 5200.47, 697.89, 0.000, 0.000, 0.000, 19:04:28.312, 1560787468312
254, -7747.00, -9475.13, 8534.19, 8497.42, 4334.25, 4245.58, 5207.46, 638.48, 0.000, 0.000, 0.000, 19:04:28.312, 1560787468312
255, -7584.64, -9303.94, 8533.54, 8578.08, 4341.00, 4226.36, 5360.04, 716.33, 0.000, 0.000, 0.000, 19:04:28.312, 1560787468312
0, -7557.01, -9286.17, 8579.52, 8615.28, 4382.93, 4284.23, 5371.53, 766.02, 0.002, 0.058, -1.034, 19:04:28.312, 1560787468312
1, -7626.66, -9355.52, 8595.56, 8600.84, 4394.64, 4318.78, 5308.27, 754.68, 0.000, 0.000, 0.000, 19:04:28.312, 1560787468312
2, -7742.38, -9473.81, 8580.88, 8533.49, 4384.05, 4330.56, 5187.62, 695.23, 0.000, 0.000, 0.000, 19:04:28.312, 1560787468312
3, -7754.71, -9485.23, 8520.06, 8495.43, 4330.52, 4245.13, 5191.80, 636.82, 0.000, 0.000, 0.000, 19:04:28.313, 1560787468313
4, -7598.01, -9309.48, 8527.10, 8560.79, 4332.08, 4221.04, 5354.32, 717.78, 0.000, 0.000, 0.000, 19:04:28.313, 1560787468313
5, -7558.22, -9284.24, 8581.39, 8600.86, 4378.73, 4283.00, 5383.51, 781.46, 0.000, 0.000, 0.000, 19:04:28.313, 1560787468313
6, -7614.26, -9338.87, 8598.72, 8580.48, 4392.99, 4321.89, 5322.02, 768.88, 0.000, 0.000, 0.000, 19:04:28.313, 1560787468313
7, -7739.31, -9475.28, 8577.39, 8533.09, 4377.39, 4331.34, 5193.34, 699.81, 0.000, 0.000, 0.000, 19:04:28.313, 1560787468313
8, -7743.49, -9475.35, 8520.33, 8486.80, 4327.95, 4247.77, 5200.31, 643.57, 0.000, 0.000, 0.000, 19:04:28.313, 1560787468313
9, -7587.97, -9289.45, 8530.65, 8557.63, 4330.45, 4217.42, 5347.05, 714.83, 0.000, 0.000, 0.000, 19:04:28.313, 1560787468313
10, -7556.81, -9277.74, 8582.69, 8613.87, 4379.47, 4279.31, 5379.04, 774.44, 0.006, 0.060, -1.036, 19:04:28.313, 1560787468313
11, -7608.38, -9339.97, 8609.42, 8595.34, 4396.81, 4320.55, 5324.81, 765.68, 0.000, 0.000, 0.000, 19:04:28.313, 1560787468313
12, -7725.70, -9476.54, 8589.48, 8532.17, 4382.93, 4329.06, 5201.38, 701.15, 0.000, 0.000, 0.000, 19:04:28.313, 1560787468313
13, -7735.98, -9475.55, 8517.94, 8487.81, 4331.03, 4241.96, 5204.54, 642.17, 0.000, 0.000, 0.000, 19:04:28.313, 1560787468313
14, -7588.26, -9297.90, 8530.90, 8559.47, 4329.09, 4214.71, 5352.86, 711.88, 0.000, 0.000, 0.000, 19:04:28.313, 1560787468313
15, -7556.54, -9265.25, 8580.34, 8587.16, 4373.10, 4270.43, 5376.33, 764.85, 0.000, 0.000, 0.000, 19:04:28.313, 1560787468313
16, -7612.51, -9341.93, 8589.89, 8577.77, 4386.40, 4307.16, 5320.23, 754.53, 0.000, 0.000, 0.000, 19:04:28.315, 1560787468315
17, -7737.57, -9507.29, 8574.33, 8532.20, 4377.92, 4320.39, 5199.89, 693.62, 0.000, 0.000, 0.000, 19:04:28.315, 1560787468315
18, -7755.50, -9496.45, 8516.22, 8489.15, 4327.92, 4238.18, 5195.35, 631.70, 0.000, 0.000, 0.000, 19:04:28.315, 1560787468315
19, -7595.01, -9308.09, 8520.60, 8556.00, 4331.66, 4213.28, 5341.49, 703.25, 0.000, 0.000, 0.000, 19:04:28.315, 1560787468315
20, -7556.50, -9289.45, 8575.96, 8601.78, 4380.56, 4271.75, 5380.53, 763.18, 0.004, 0.064, -1.036, 19:04:28.316, 1560787468316
21, -7607.68, -9349.71, 8602.27, 8592.14, 4400.70, 4316.26, 5333.22, 758.37, 0.000, 0.000, 0.000, 19:04:28.317, 1560787468317
22, -7726.30, -9479.11, 8592.97, 8539.60, 4394.87, 4331.86, 5211.53, 695.61, 0.000, 0.000, 0.000, 19:04:28.317, 1560787468317
23, -7741.35, -9467.57, 8547.55, 8497.42, 4341.56, 4249.87, 5211.98, 637.99, 0.000, 0.000, 0.000, 19:04:28.317, 1560787468317
24, -7576.28, -9281.11, 8544.69, 8569.86, 4346.34, 4231.19, 5376.44, 719.39, 0.000, 0.000, 0.000, 19:04:28.317, 1560787468317
25, -7519.82, -9249.58, 8593.75, 8605.82, 4394.55, 4295.13, 5398.86, 779.94, 0.000, 0.000, 0.000, 19:04:28.317, 1560787468317
26, -7578.07, -9324.86, 8605.82, 8598.11, 4405.60, 4333.11, 5332.88, 768.18, 0.000, 0.000, 0.000, 19:04:28.317, 1560787468317
27, -7739.05, -9492.12, 8578.17, 8546.95, 4383.49, 4339.32, 5197.79, 691.25, 0.000, 0.000, 0.000, 19:04:28.317, 1560787468317
28, -7760.12, -9502.42, 8511.83, 8490.56, 4327.16, 4248.04, 5193.61, 624.49, 0.000, 0.000, 0.000, 19:04:28.318, 1560787468318
29, -7596.20, -9311.29, 8516.57, 8553.97, 4328.12, 4219.65, 5353.11, 702.25, 0.000, 0.000, 0.000, 19:04:28.318, 1560787468318
30, -7552.03, -9280.60, 8578.84, 8605.44, 4377.88, 4284.56, 5379.42, 766.42, 0.000, 0.060, -1.032, 19:04:28.318, 1560787468318
31, -7604.98, -9345.55, 8601.04, 8594.54, 4393.46, 4324.95, 5324.30, 764.09, 0.000, 0.000, 0.000, 19:04:28.318, 1560787468318
32, -7723.58, -9472.00, 8585.60, 8534.21, 4377.46, 4337.20, 5212.83, 706.18, 0.000, 0.000, 0.000, 19:04:28.318, 1560787468318
33, -7750.00, -9471.31, 8523.39, 8472.38, 4320.23, 4243.19, 5206.82, 641.29, 0.000, 0.000, 0.000, 19:04:28.318, 1560787468318
34, -7598.74, -9292.20, 8528.35, 8543.69, 4319.65, 4209.55, 5362.88, 710.96, 0.000, 0.000, 0.000, 19:04:28.318, 1560787468318
35, -7555.81, -9288.58, 8576.61, 8592.93, 4368.85, 4268.04, 5386.03, 764.97, 0.000, 0.000, 0.000, 19:04:28.318, 1560787468318
36, -7605.56, -9369.83, 8595.23, 8585.46, 4391.31, 4308.88, 5328.61, 753.45, 0.000, 0.000, 0.000, 19:04:28.318, 1560787468318
37, -7736.50, -9505.33, 8587.25, 8511.68, 4373.10, 4311.29, 5198.14, 680.03, 0.000, 0.000, 0.000, 19:04:28.318, 1560787468318
38, -7758.20, -9506.15, 8507.03, 8465.23, 4319.14, 4225.37, 5192.02, 614.63, 0.000, 0.000, 0.000, 19:04:28.318, 1560787468318
39, -7598.30, -9312.32, 8511.72, 8534.77, 4322.07, 4200.07, 5353.20, 691.85, 0.000, 0.000, 0.000, 19:04:28.318, 1560787468318
40, -7560.39, -9278.43, 8567.85, 8582.98, 4368.18, 4259.97, 5373.07, 749.66, 0.006, 0.056, -1.028, 19:04:28.318, 1560787468318
41, -7620.36, -9344.97, 8572.70, 8567.29, 4377.54, 4290.10, 5304.52, 732.65, 0.000, 0.000, 0.000, 19:04:28.318, 1560787468318
42, -7735.51, -9498.64, 8583.16, 8518.45, 4365.99, 4306.94, 5187.48, 673.73, 0.000, 0.000, 0.000, 19:04:28.318, 1560787468318
43, -7742.96, -9480.20, 8524.53, 8460.09, 4324.66, 4236.10, 5193.76, 621.56, 0.000, 0.000, 0.000, 19:04:28.318, 1560787468318
44, -7587.75, -9297.30, 8505.44, 8526.59, 4325.78, 4209.79, 5347.27, 692.93, 0.000, 0.000, 0.000, 19:04:28.318, 1560787468318
45, -7567.94, -9308.21, 8555.31, 8596.55, 4362.26, 4261.11, 5361.45, 740.36, 0.000, 0.000, 0.000, 19:04:28.318, 1560787468318
46, -7642.42, -9396.47, 8566.66, 8573.77, 4363.98, 4285.63, 5282.68, 718.09, 0.000, 0.000, 0.000, 19:04:28.318, 1560787468318
47, -7757.69, -9526.42, 8557.32, 8514.36, 4350.70, 4297.46, 5148.81, 653.94, 0.000, 0.000, 0.000, 19:04:28.318, 1560787468318
48, -7773.67, -9519.36, 8501.37, 8465.48, 4306.58, 4220.32, 5156.57, 598.89, 0.000, 0.000, 0.000, 19:04:28.319, 1560787468319
49, -7609.58, -9321.04, 8507.81, 8537.72, 4315.29, 4198.44, 5338.96, 688.08, 0.000, 0.000, 0.000, 19:04:28.319, 1560787468319
50, -7553.08, -9274.01, 8574.51, 8600.75, 4375.04, 4273.83, 5383.71, 764.54, 0.004, 0.056, -1.026, 19:04:28.319, 1560787468319
51, -7610.57, -9335.67, 8595.30, 8596.97, 4390.84, 4316.55, 5324.23, 763.24, 0.000, 0.000, 0.000, 19:04:28.319, 1560787468319
52, -7732.61, -9458.01, 8584.32, 8526.09, 4380.29, 4331.79, 5202.44, 705.56, 0.000, 0.000, 0.000, 19:04:28.319, 1560787468319
53, -7758.89, -9485.61, 8520.10, 8467.29, 4332.19, 4249.25, 5201.05, 647.93, 0.000, 0.000, 0.000, 19:04:28.319, 1560787468319
54, -7590.61, -9305.72, 8541.38, 8541.47, 4341.47, 4225.04, 5365.40, 729.32, 0.000, 0.000, 0.000, 19:04:28.319, 1560787468319
55, -7541.46, -9277.38, 8582.94, 8605.82, 4387.33, 4284.40, 5393.68, 788.97, 0.000, 0.000, 0.000, 19:04:28.319, 1560787468319
56, -7591.26, -9342.72, 8576.05, 8585.51, 4396.97, 4315.52, 5332.86, 773.46, 0.000, 0.000, 0.000, 19:04:28.319, 1560787468319
57, -7724.38, -9499.42, 8568.61, 8531.86, 4379.78, 4323.61, 5204.07, 700.32, 0.000, 0.000, 0.000, 19:04:28.319, 1560787468319
58, -7767.10, -9514.27, 8509.55, 8481.55, 4326.00, 4237.71, 5194.90, 630.99, 0.000, 0.000, 0.000, 19:04:28.319, 1560787468319
59, -7609.23, -9316.41, 8513.85, 8542.14, 4328.88, 4210.64, 5359.26, 707.81, 0.000, 0.000, 0.000, 19:04:28.319, 1560787468319
60, -7567.88, -9287.60, 8568.07, 8594.96, 4373.99, 4269.32, 5384.71, 763.56, 0.004, 0.056, -1.026, 19:04:28.319, 1560787468319
61, -7622.93, -9356.26, 8585.44, 8579.85, 4387.25, 4305.91, 5316.68, 745.39, 0.000, 0.000, 0.000, 19:04:28.319, 1560787468319
62, -7745.04, -9498.62, 8572.81, 8533.65, 4377.50, 4318.58, 5189.38, 677.86, 0.000, 0.000, 0.000, 19:04:28.319, 1560787468319
63, -7776.33, -9511.54, 8510.63, 8473.52, 4321.62, 4233.15, 5176.62, 609.38, 0.000, 0.000, 0.000, 19:04:28.319, 1560787468319
64, -7609.96, -9303.82, 8513.47, 8530.34, 4323.59, 4207.56, 5344.82, 690.31, 0.000, 0.000, 0.000, 19:04:28.319, 1560787468319
65, -7557.44, -9264.33, 8578.60, 8594.20, 4375.06, 4273.79, 5377.40, 755.91, 0.000, 0.000, 0.000, 19:04:28.319, 1560787468319
66, -7619.17, -9348.06, 8615.08, 8575.56, 4382.46, 4306.91, 5313.03, 743.37, 0.000, 0.000, 0.000, 19:04:28.319, 1560787468319
67, -7728.27, -9478.37, 8580.10, 8541.29, 4380.56, 4331.39, 5201.88, 694.74, 0.000, 0.000, 0.000, 19:04:28.319, 1560787468319
68, -7746.24, -9488.92, 8513.33, 8493.30, 4337.47, 4259.93, 5199.55, 636.49, 0.000, 0.000, 0.000, 19:04:28.319, 1560787468319
69, -7594.47, -9313.01, 8511.28, 8561.19, 4329.26, 4225.13, 5350.09, 703.95, 0.000, 0.000, 0.000, 19:04:28.319, 1560787468319
70, -7547.36, -9279.17, 8568.41, 8623.95, 4377.10, 4287.67, 5381.94, 772.86, 0.000, 0.056, -1.028, 19:04:28.319, 1560787468319
71, -7600.80, -9337.93, 8589.26, 8613.89, 4398.22, 4330.18, 5326.98, 768.34, 0.000, 0.000, 0.000, 19:04:28.320, 1560787468320
72, -7736.63, -9487.69, 8571.92, 8547.69, 4381.25, 4341.25, 5199.10, 698.47, 0.000, 0.000, 0.000, 19:04:28.320, 1560787468320
73, -7774.85, -9509.39, 8502.47, 8471.78, 4319.72, 4250.88, 5178.85, 622.25, 0.000, 0.000, 0.000, 19:04:28.320, 1560787468320
74, -7602.52, -9315.18, 8503.43, 8539.84, 4312.50, 4217.46, 5325.82, 692.28, 0.000, 0.000, 0.000, 19:04:28.320, 1560787468320
75, -7553.39, -9268.53, 8572.70, 8606.23, 4362.28, 4277.01, 5370.63, 758.04, 0.000, 0.000, 0.000, 19:04:28.320, 1560787468320
76, -7607.82, -9341.67, 8595.52, 8588.46, 4376.99, 4313.62, 5314.71, 746.95, 0.000, 0.000, 0.000, 19:04:28.320, 1560787468320
77, -7724.36, -9479.58, 8559.85, 8525.60, 4363.08, 4328.62, 5198.99, 685.35, 0.000, 0.000, 0.000, 19:04:28.320, 1560787468320
78, -7767.25, -9496.18, 8493.73, 8497.78, 4316.99, 4251.12, 5188.69, 619.48, 0.000, 0.000, 0.000, 19:04:28.320, 1560787468320
79, -7611.77, -9316.74, 8494.85, 8559.11, 4315.81, 4217.75, 5348.30, 689.53, 0.002, 0.052, -1.038, 19:04:28.320, 1560787468320
80, -7569.40, -9298.01, 8546.30, 8601.76, 4358.21, 4270.84, 5374.01, 744.00, 0.000, 0.000, 0.000, 19:04:28.320, 1560787468320
81, -7637.68, -9375.68, 8555.04, 8580.63, 4363.24, 4299.09, 5303.31, 722.54, 0.000, 0.000, 0.000, 19:04:28.320, 1560787468320
82, -7755.54, -9505.84, 8547.40, 8526.83, 4347.10, 4304.66, 5172.44, 655.82, 0.000, 0.000, 0.000, 19:04:28.321, 1560787468321
83, -7783.32, -9501.57, 8483.07, 8461.39, 4300.97, 4223.09, 5165.91, 596.14, 0.000, 0.000, 0.000, 19:04:28.321, 1560787468321
84, -7621.21, -9325.91, 8482.49, 8512.46, 4300.43, 4192.78, 5319.87, 669.05, 0.000, 0.000, 0.000, 19:04:28.321, 1560787468321
85, -7563.83, -9286.21, 8556.07, 8585.80, 4357.70, 4267.06, 5365.40, 746.66, 0.000, 0.000, 0.000, 19:04:28.321, 1560787468321
86, -7621.92, -9356.80, 8572.03, 8584.37, 4373.81, 4307.65, 5318.13, 745.32, 0.000, 0.000, 0.000, 19:04:28.321, 1560787468321
87, -7741.10, -9498.02, 8565.72, 8527.01, 4358.34, 4321.06, 5204.18, 689.53, 0.000, 0.000, 0.000, 19:04:28.321, 1560787468321
88, -7757.98, -9492.92, 8507.92, 8474.19, 4318.07, 4246.74, 5198.21, 634.86, 0.000, 0.000, 0.000, 19:04:28.321, 1560787468321
89, -7611.84, -9320.59, 8485.57, 8536.89, 4313.57, 4213.48, 5355.95, 708.30, -0.004, 0.050, -1.032, 19:04:28.792, 1560787468792
90, -7574.83, -9289.29, 8543.95, 8591.12, 4357.72, 4270.88, 5381.20, 766.31, 0.000, 0.000, 0.000, 19:04:28.792, 1560787468792
91, -7630.57, -9356.02, 8562.26, 8581.10, 4371.84, 4304.19, 5317.44, 754.89, 0.000, 0.000, 0.000, 19:04:28.792, 1560787468792
92, -7748.59, -9495.40, 8557.72, 8526.27, 4363.33, 4321.31, 5197.81, 696.59, 0.000, 0.000, 0.000, 19:04:28.792, 1560787468792
93, -7784.75, -9522.31, 8489.21, 8479.60, 4315.21, 4242.38, 5185.67, 631.06, 0.000, 0.000, 0.000, 19:04:28.792, 1560787468792
94, -7623.40, -9332.61, 8491.94, 8540.60, 4318.67, 4210.38, 5351.25, 703.81, 0.000, 0.000, 0.000, 19:04:28.792, 1560787468792
95, -7578.92, -9298.53, 8547.17, 8569.01, 4362.19, 4262.23, 5377.05, 757.59, 0.000, 0.000, 0.000, 19:04:28.792, 1560787468792
96, -7630.48, -9364.06, 8569.08, 8564.54, 4376.81, 4302.42, 5316.74, 748.31, 0.000, 0.000, 0.000, 19:04:28.792, 1560787468792
97, -7749.19, -9487.87, 8550.30, 8508.17, 4365.03, 4315.92, 5193.85, 684.92, 0.000, 0.000, 0.000, 19:04:28.792, 1560787468792
98, -7775.52, -9499.42, 8498.13, 8461.61, 4318.31, 4237.78, 5183.55, 622.27, 0.000, 0.000, 0.000, 19:04:28.792, 1560787468792
99, -7620.40, -9315.78, 8498.71, 8525.13, 4312.50, 4196.47, 5338.02, 687.56, 0.002, 0.056, -1.034, 19:04:28.792, 1560787468792
100, -7565.55, -9286.50, 8559.13, 8577.95, 4358.97, 4257.56, 5370.72, 747.98, 0.000, 0.000, 0.000, 19:04:28.792, 1560787468792
101, -7618.46, -9361.89, 8561.86, 8562.51, 4371.58, 4297.44, 5315.87, 738.26, 0.000, 0.000, 0.000, 19:04:28.792, 1560787468792
102, -7754.33, -9525.75, 8529.74, 8504.01, 4358.23, 4308.79, 5190.57, 674.98, 0.000, 0.000, 0.000, 19:04:28.792, 1560787468792
103, -7792.73, -9533.89, 8477.03, 8451.04, 4310.11, 4227.50, 5172.82, 607.97, 0.000, 0.000, 0.000, 19:04:28.792, 1560787468792
104, -7631.35, -9340.32, 8472.85, 8513.47, 4305.57, 4189.34, 5335.90, 680.23, 0.000, 0.000, 0.000, 19:04:28.793, 1560787468793
105, -7580.91, -9312.90, 8530.63, 8572.88, 4352.98, 4249.27, 5369.81, 746.97, 0.000, 0.000, 0.000, 19:04:28.793, 1560787468793
106, -7632.47, -9381.72, 8553.83, 8572.92, 4374.42, 4292.38, 5308.70, 738.23, 0.000, 0.000, 0.000, 19:04:28.793, 1560787468793
107, -7750.06, -9510.91, 8554.53, 8506.27, 4364.98, 4308.28, 5185.00, 678.55, 0.000, 0.000, 0.000, 19:04:28.793, 1560787468793
108, -7786.10, -9511.87, 8494.27, 8445.79, 4308.90, 4227.92, 5163.90, 611.79, 0.000, 0.000, 0.000, 19:04:28.793, 1560787468793
109, -7630.42, -9301.12, 8486.71, 8489.88, 4307.81, 4190.28, 5330.91, 683.38, -0.002, 0.052, -1.028, 19:04:28.793, 1560787468793
110, -7573.42, -9295.51, 8544.58, 8575.20, 4361.32, 4257.60, 5378.75, 757.61, 0.000, 0.000, 0.000, 19:04:28.793, 1560787468793
111, -7624.36, -9393.16, 8555.71, 8575.27, 4373.48, 4296.16, 5313.14, 746.30, 0.000, 0.000, 0.000, 19:04:28.793, 1560787468793
112, -7753.44, -9530.98, 8540.44, 8520.15, 4357.61, 4308.21, 5185.40, 681.42, 0.000, 0.000, 0.000, 19:04:28.793, 1560787468793
113, -7798.39, -9543.61, 8476.09, 8444.35, 4300.79, 4223.94, 5161.02, 608.88, 0.000, 0.000, 0.000, 19:04:28.793, 1560787468793
114, -7645.53, -9357.09, 8467.94, 8496.64, 4289.30, 4183.82, 5318.22, 675.16, 0.000, 0.000, 0.000, 19:04:28.793, 1560787468793
115, -7580.08, -9307.04, 8546.82, 8559.67, 4343.19, 4250.63, 5364.19, 749.25, 0.000, 0.000, 0.000, 19:04:28.793, 1560787468793
116, -7629.19, -9364.78, 8565.25, 8549.03, 4362.17, 4290.44, 5311.20, 746.62, 0.000, 0.000, 0.000, 19:04:28.793, 1560787468793
117, -7751.74, -9481.07, 8530.34, 8502.94, 4349.83, 4303.47, 5189.09, 685.93, 0.000, 0.000, 0.000, 19:04:28.793, 1560787468793
118, -7789.47, -9521.66, 8475.04, 8451.42, 4298.49, 4227.34, 5169.42, 617.67, 0.000, 0.000, 0.000, 19:04:28.793, 1560787468793
119, -7637.19, -9361.96, 8470.04, 8510.23, 4289.25, 4187.76, 5327.34, 683.07, -0.002, 0.054, -1.032, 19:04:28.793, 1560787468793
120, -7577.40, -9309.19, 8533.49, 8562.04, 4342.52, 4247.90, 5367.41, 748.60, 0.000, 0.000, 0.000, 19:04:28.793, 1560787468793
121, -7638.78, -9380.04, 8551.75, 8553.70, 4359.19, 4282.77, 5310.17, 741.47, 0.000, 0.000, 0.000, 19:04:28.793, 1560787468793
122, -7754.36, -9518.58, 8545.25, 8506.72, 4354.72, 4299.02, 5191.93, 686.85, 0.000, 0.000, 0.000, 19:04:28.793, 1560787468793
123, -7784.26, -9528.55, 8495.76, 8460.60, 4309.66, 4223.88, 5173.47, 619.61, 0.000, 0.000, 0.000, 19:04:28.793, 1560787468793
124, -7626.39, -9333.42, 8492.41, 8507.10, 4299.60, 4181.32, 5325.35, 676.79, 0.000, 0.000, 0.000, 19:04:28.793, 1560787468793
125, -7584.30, -9305.19, 8534.30, 8556.61, 4346.97, 4239.52, 5363.46, 740.36, 0.000, 0.000, 0.000, 19:04:28.793, 1560787468793
126, -7650.26, -9384.16, 8546.05, 8553.03, 4363.80, 4282.10, 5311.78, 738.79, 0.000, 0.000, 0.000, 19:04:28.793, 1560787468793
127, -7766.69, -9521.33, 8535.97, 8494.18, 4351.37, 4296.16, 5191.28, 682.29, 0.000, 0.000, 0.000, 19:04:28.793, 1560787468793
128, -7803.31, -9545.38, 8480.12, 8435.19, 4302.24, 4221.42, 5167.46, 612.17, 0.000, 0.000, 0.000, 19:04:28.793, 1560787468793
129, -7645.73, -9361.31, 8476.18, 8500.95, 4294.64, 4184.49, 5321.39, 673.59, 0.004, 0.056, -1.034, 19:04:28.793, 1560787468793
130, -7594.25, -9312.27, 8549.32, 8552.20, 4335.43, 4237.24, 5355.57, 736.60, 0.000, 0.000, 0.000, 19:04:28.793, 1560787468793
131, -7640.63, -9344.39, 8547.73, 8527.64, 4349.72, 4275.20, 5302.12, 731.53, 0.000, 0.000, 0.000, 19:04:28.793, 1560787468793
132, -7757.24, -9495.27, 8527.44, 8487.90, 4345.60, 4295.96, 5182.45, 673.82, 0.000, 0.000, 0.000, 19:04:28.793, 1560787468793
133, -7788.64, -9535.08, 8491.81, 8450.77, 4305.12, 4230.47, 5166.00, 610.00, 0.000, 0.000, 0.000, 19:04:28.793, 1560787468793
134, -7639.02, -9376.71, 8489.50, 8513.40, 4296.56, 4192.87, 5324.48, 673.88, 0.000, 0.000, 0.000, 19:04:28.793, 1560787468793
135, -7580.37, -9324.52, 8546.59, 8568.94, 4348.67, 4253.63, 5369.09, 744.87, 0.000, 0.000, 0.000, 19:04:28.793, 1560787468793
136, -7640.61, -9388.63, 8561.81, 8564.61, 4362.28, 4290.17, 5309.37, 735.22, 0.000, 0.000, 0.000, 19:04:28.793, 1560787468793
137, -7760.44, -9530.78, 8545.76, 8512.33, 4356.15, 4309.17, 5193.38, 681.04, 0.000, 0.000, 0.000, 19:04:28.793, 1560787468793
138, -7810.06, -9561.67, 8481.70, 8442.10, 4303.05, 4231.59, 5166.87, 610.81, 0.000, 0.000, 0.000, 19:04:28.794, 1560787468794
139, -7658.09, -9367.88, 8470.15, 8481.32, 4282.30, 4181.54, 5310.51, 668.12, 0.002, 0.056, -1.034, 19:04:28.794, 1560787468794
140, -7593.18, -9315.18, 8533.81, 8559.56, 4336.93, 4250.05, 5359.77, 740.27, 0.000, 0.000, 0.000, 19:04:28.794, 1560787468794
141, -7647.11, -9386.21, 8554.57, 8561.68, 4361.50, 4296.74, 5322.89, 742.28, 0.000, 0.000, 0.000, 19:04:28.794, 1560787468794
142, -7771.86, -9523.56, 8537.83, 8508.50, 4352.20, 4311.67, 5183.01, 671.74, 0.000, 0.000, 0.000, 19:04:28.794, 1560787468794
143, -7817.46, -9554.54, 8484.01, 8442.12, 4295.42, 4229.26, 5142.76, 576.14, 0.000, 0.000, 0.000, 19:04:28.794, 1560787468794
144, -7653.68, -9370.63, 8488.81, 8499.67, 4287.02, 4189.50, 5326.78, 642.68, 0.000, 0.000, 0.000, 19:04:28.794, 1560787468794
145, -7596.22, -9317.93, 8544.27, 8553.74, 4341.47, 4245.13, 5364.69, 707.14, 0.000, 0.000, 0.000, 19:04:28.794, 1560787468794
146, -7662.27, -9394.13, 8543.75, 8540.80, 4357.81, 4275.62, 5274.32, 659.62, 0.000, 0.000, 0.000, 19:04:28.794, 1560787468794
147, -7781.25, -9544.35, 8536.82, 8503.18, 4357.00, 4301.88, 5166.81, 625.54, 0.000, 0.000, 0.000, 19:04:28.794, 1560787468794
148, -7825.73, -9573.12, 8482.44, 8437.51, 4304.54, 4226.36, 5134.11, 551.40, 0.000, 0.000, 0.000, 19:04:28.794, 1560787468794
149, -7674.49, -9382.61, 8473.95, 8475.85, 4281.19, 4172.69, 5216.03, 546.79, 0.002, 0.058, -1.034, 19:04:28.794, 1560787468794
150, -7611.57, -9339.01, 8520.46, 8561.95, 4332.62, 4236.53, 5295.66, 664.52, 0.000, 0.000, 0.000, 19:04:28.794, 1560787468794
151, -7654.49, -9387.82, 8539.01, 8545.99, 4364.38, 4291.51, 5327.83, 737.59, 0.000, 0.000, 0.000, 19:04:28.794, 1560787468794
152, -7774.45, -9538.96, 8534.10, 8503.07, 4350.90, 4312.37, 5155.30, 652.49, 0.000, 0.000, 0.000, 19:04:28.794, 1560787468794
153, -7817.03, -9561.92, 8483.89, 8450.59, 4289.66, 4230.04, 5067.81, 530.76, 0.000, 0.000, 0.000, 19:04:28.794, 1560787468794
154, -7649.53, -9360.93, 8488.03, 8494.20, 4283.91, 4186.24, 5304.07, 642.01, 0.000, 0.000, 0.000, 19:04:28.794, 1560787468794
155, -7605.72, -9333.84, 8516.55, 8542.46, 4336.01, 4246.90, 5381.43, 753.88, 0.000, 0.000, 0.000, 19:04:28.794, 1560787468794
156, -7673.60, -9412.48, 8529.38, 8530.45, 4351.55, 4284.07, 5304.83, 738.93, 0.000, 0.000, 0.000, 19:04:28.794, 1560787468794
157, -7792.76, -9561.65, 8526.70, 8479.38, 4343.90, 4296.61, 5177.47, 669.95, 0.000, 0.000, 0.000, 19:04:28.794, 1560787468794
158, -7843.03, -9598.24, 8470.89, 8422.88, 4293.79, 4223.14, 5139.76, 585.79, 0.000, 0.000, 0.000, 19:04:28.794, 1560787468794
159, -7692.53, -9402.40, 8459.64, 8477.66, 4276.00, 4179.35, 5289.90, 638.37, -0.002, 0.058, -1.032, 19:04:28.794, 1560787468794
160, -7635.15, -9353.91, 8514.20, 8543.02, 4320.55, 4234.72, 5327.52, 698.38, 0.000, 0.000, 0.000, 19:04:28.794, 1560787468794
161, -7684.44, -9414.08, 8539.89, 8532.73, 4341.80, 4268.22, 5274.63, 689.55, 0.000, 0.000, 0.000, 19:04:28.794, 1560787468794
162, -7798.39, -9570.30, 8528.11, 8467.47, 4333.44, 4278.75, 5164.59, 632.24, 0.000, 0.000, 0.000, 19:04:28.794, 1560787468794
163, -7841.17, -9602.60, 8477.75, 8413.64, 4289.34, 4205.68, 5136.61, 557.99, 0.000, 0.000, 0.000, 19:04:28.794, 1560787468794
164, -7690.10, -9411.00, 8458.39, 8473.34, 4271.60, 4164.73, 5297.92, 619.84, 0.000, 0.000, 0.000, 19:04:28.794, 1560787468794
165, -7623.22, -9341.00, 8514.43, 8526.27, 4320.44, 4222.76, 5352.15, 696.46, 0.000, 0.000, 0.000, 19:04:28.794, 1560787468794
166, -7673.76, -9415.40, 8530.07, 8525.02, 4335.12, 4257.18, 5300.49, 694.45, 0.000, 0.000, 0.000, 19:04:28.794, 1560787468794
167, -7794.54, -9562.61, 8524.31, 8490.62, 4327.54, 4275.51, 5182.39, 638.99, 0.000, 0.000, 0.000, 19:04:28.794, 1560787468794
168, -7831.29, -9578.57, 8468.49, 8431.48, 4277.10, 4209.35, 5143.83, 563.42, 0.000, 0.000, 0.000, 19:04:28.794, 1560787468794
169, -7675.88, -9391.02, 8442.21, 8468.58, 4248.69, 4157.92, 5286.48, 611.59, -0.002, 0.060, -1.040, 19:04:28.794, 1560787468794
170, -7616.96, -9346.07, 8502.11, 8523.68, 4295.45, 4214.26, 5335.74, 683.96, 0.000, 0.000, 0.000, 19:04:28.794, 1560787468794
171, -7673.85, -9411.76, 8524.06, 8533.83, 4327.63, 4264.20, 5288.60, 691.99, 0.000, 0.000, 0.000, 19:04:28.795, 1560787468795
172, -7786.97, -9536.26, 8525.71, 8498.51, 4330.34, 4290.31, 5174.97, 647.17, 0.000, 0.000, 0.000, 19:04:28.795, 1560787468795
173, -7834.98, -9570.55, 8458.44, 8440.09, 4281.61, 4218.67, 5137.62, 572.90, 0.000, 0.000, 0.000, 19:04:28.795, 1560787468795
174, -7686.50, -9375.66, 8433.63, 8466.33, 4249.25, 4162.19, 5274.81, 615.14, 0.000, 0.000, 0.000, 19:04:28.795, 1560787468795
175, -7613.54, -9322.80, 8498.42, 8527.06, 4302.98, 4224.10, 5320.25, 685.17, 0.000, 0.000, 0.000, 19:04:28.795, 1560787468795
176, -7653.48, -9402.75, 8532.62, 8534.21, 4335.23, 4272.16, 5274.59, 690.38, 0.000, 0.000, 0.000, 19:04:28.795, 1560787468795
177, -7754.09, -9525.62, 8527.75, 8505.08, 4340.33, 4298.98, 5166.94, 649.39, 0.000, 0.000, 0.000, 19:04:28.795, 1560787468795
178, -7798.28, -9555.53, 8471.96, 8458.86, 4288.43, 4226.89, 5133.55, 578.02, 0.000, 0.000, 0.000, 19:04:28.795, 1560787468795
179, -7654.13, -9397.19, 8464.11, 8494.65, 4260.69, 4170.61, 5283.42, 630.65, 0.002, 0.060, -1.040, 19:04:28.795, 1560787468795
180, -7585.85, -9343.27, 8511.59, 8547.13, 4307.47, 4227.05, 5336.77, 706.65, 0.000, 0.000, 0.000, 19:04:28.795, 1560787468795
181, -7650.00, -9395.44, 8526.32, 8527.15, 4324.53, 4258.99, 5277.36, 691.85, 0.000, 0.000, 0.000, 19:04:28.795, 1560787468795
182, -7764.26, -9528.19, 8516.86, 8470.48, 4321.69, 4279.93, 5161.20, 636.71, 0.000, 0.000, 0.000, 19:04:28.795, 1560787468795
183, -7814.26, -9566.93, 8461.03, 8418.02, 4271.55, 4205.57, 5125.48, 561.34, 0.000, 0.000, 0.000, 19:04:28.795, 1560787468795
184, -7663.34, -9376.94, 8451.71, 8473.19, 4253.60, 4154.61, 5277.25, 613.51, 0.000, 0.000, 0.000, 19:04:28.796, 1560787468796
185, -7596.66, -9331.58, 8508.04, 8525.40, 4301.66, 4206.08, 5324.48, 680.07, 0.000, 0.000, 0.000, 19:04:28.796, 1560787468796
186, -7636.81, -9387.87, 8539.10, 8522.79, 4328.55, 4250.59, 5277.76, 681.59, 0.000, 0.000, 0.000, 19:04:28.796, 1560787468796
187, -7745.77, -9510.09, 8545.16, 8481.95, 4325.82, 4278.53, 5165.60, 634.70, 0.000, 0.000, 0.000, 19:04:28.796, 1560787468796
188, -7793.99, -9544.95, 8483.09, 8430.25, 4283.38, 4211.87, 5129.12, 563.38, 0.002, 0.060, -1.032, 19:04:28.796, 1560787468796
189, -7641.59, -9375.66, 8461.63, 8494.53, 4268.83, 4164.22, 5281.85, 618.61, 0.000, 0.000, 0.000, 19:04:28.796, 1560787468796
190, -7579.72, -9312.85, 8518.96, 8539.04, 4320.82, 4218.98, 5332.37, 690.58, 0.000, 0.000, 0.000, 19:04:28.796, 1560787468796
191, -7628.99, -9387.67, 8538.01, 8540.29, 4342.74, 4261.43, 5277.54, 687.23, 0.000, 0.000, 0.000, 19:04:28.796, 1560787468796
192, -7745.01, -9525.42, 8529.49, 8489.73, 4337.42, 4282.10, 5158.85, 635.53, 0.000, 0.000, 0.000, 19:04:28.796, 1560787468796
193, -7802.46, -9558.81, 8473.17, 8432.51, 4288.76, 4210.69, 5120.38, 559.08, 0.000, 0.000, 0.000, 19:04:28.796, 1560787468796
194, -7649.62, -9361.45, 8461.79, 8474.10, 4272.38, 4165.54, 5272.80, 613.69, 0.000, 0.000, 0.000, 19:04:28.796, 1560787468796
195, -7580.44, -9304.05, 8516.08, 8536.04, 4316.79, 4222.45, 5322.04, 686.58, 0.000, 0.000, 0.000, 19:04:28.796, 1560787468796
196, -7625.65, -9343.61, 8527.26, 8523.44, 4334.76, 4261.34, 5265.24, 684.37, 0.000, 0.000, 0.000, 19:04:28.796, 1560787468796
197, -7735.09, -9496.43, 8518.16, 8491.87, 4330.61, 4287.13, 5136.68, 626.85, 0.000, 0.000, 0.000, 19:04:28.796, 1560787468796
198, -7798.57, -9575.96, 8459.44, 8439.95, 4283.44, 4215.56, 5121.25, 562.21, 0.004, 0.062, -1.032, 19:04:28.796, 1560787468796
199, -7651.00, -9389.32, 8440.49, 8493.71, 4267.02, 4168.11, 5285.56, 624.91, 0.000, 0.000, 0.000, 19:04:28.796, 1560787468796
200, -7585.58, -9317.37, 8504.24, 8556.02, 4307.40, 4220.75, 5324.81, 690.94, 0.000, 0.000, 0.000, 19:04:28.796, 1560787468796
201, -7623.78, -9363.35, 8540.47, 8535.30, 4324.57, 4260.29, 5274.45, 688.75, 0.000, 0.000, 0.000, 19:04:28.796, 1560787468796
202, -7706.14, -9485.72, 8517.09, 8492.39, 4334.07, 4292.72, 5167.23, 650.10, 0.000, 0.000, 0.000, 19:04:28.796, 1560787468796
203, -7766.18, -9518.20, 8460.16, 8458.03, 4290.28, 4224.84, 5136.30, 584.21, 0.000, 0.000, 0.000, 19:04:28.796, 1560787468796
204, -7648.12, -9352.71, 8449.12, 8468.38, 4268.76, 4161.83, 5291.13, 634.57, 0.000, 0.000, 0.000, 19:04:28.796, 1560787468796
205, -7590.92, -9328.05, 8499.23, 8536.89, 4316.99, 4216.50, 5339.68, 696.28, 0.000, 0.000, 0.000, 19:04:28.796, 1560787468796
206, -7634.77, -9401.77, 8529.54, 8547.53, 4342.27, 4262.72, 5282.07, 687.87, 0.000, 0.000, 0.000, 19:04:28.796, 1560787468796
207, -7738.13, -9508.68, 8526.88, 8500.73, 4340.73, 4288.11, 5178.21, 641.38, 0.000, 0.000, 0.000, 19:04:28.796, 1560787468796
