%OpenBCI Raw EEG Data
%Number of channels = 8
%Sample Rate = 250.0 Hz
%First Column = SampleIndex
%Last Column = Timestamp 
%Other Columns = EEG data in microvolts followed by Accel Data (in G) interleaved with Aux Data
0, -3369.21, -3560.99, 7938.91, 8619.64, 7465.93, 6390.43, 8668.18, 7448.92, 0.008, 0.040, -1.028, 17:13:17.807, 1560867197807
1, -3368.61, -3560.21, 7938.22, 8618.41, 7464.88, 6389.65, 8666.69, 7447.02, 0.000, 0.000, 0.000, 17:13:17.807, 1560867197807
2, -3370.06, -3559.49, 7938.40, 8618.14, 7464.79, 6389.89, 8666.29, 7447.18, 0.000, 0.000, 0.000, 17:13:17.807, 1560867197807
3, -3369.91, -3561.73, 7939.09, 8618.23, 7465.28, 6390.36, 8667.09, 7448.18, 0.000, 0.000, 0.000, 17:13:17.808, 1560867197808
4, -3368.01, -3560.32, 7939.74, 8619.48, 7466.18, 6391.08, 8668.36, 7449.03, 0.000, 0.000, 0.000, 17:13:17.808, 1560867197808
5, -3370.33, -3559.07, 7939.72, 8620.46, 7467.16, 6390.81, 8669.03, 7450.13, 0.000, 0.000, 0.000, 17:13:17.808, 1560867197808
6, -3369.99, -3561.57, 7937.80, 8618.70, 7465.04, 6389.38, 8667.09, 7448.12, 0.000, 0.000, 0.000, 17:13:17.808, 1560867197808
7, -3369.39, -3561.39, 7937.64, 8618.09, 7463.76, 6389.29, 8666.17, 7447.22, 0.006, 0.042, -1.032, 17:13:17.808, 1560867197808
8, -3368.99, -3559.09, 7938.13, 8619.08, 7464.83, 6390.52, 8666.91, 7447.78, 0.000, 0.000, 0.000, 17:13:17.808, 1560867197808
9, -3371.74, -3561.06, 7939.32, 8619.97, 7466.00, 6391.68, 8668.36, 7448.70, 0.000, 0.000, 0.000, 17:13:17.808, 1560867197808
10, -3370.91, -3559.11, 7939.38, 8619.75, 7465.73, 6391.44, 8668.30, 7448.16, 0.000, 0.000, 0.000, 17:13:17.808, 1560867197808
11, -3370.78, -3559.94, 7936.95, 8617.80, 7463.87, 6389.27, 8666.24, 7446.80, 0.000, 0.000, 0.000, 17:13:17.808, 1560867197808
12, -3371.20, -3559.72, 7936.79, 8618.47, 7464.68, 6389.56, 8666.55, 7448.12, 0.000, 0.000, 0.000, 17:13:17.808, 1560867197808
13, -3370.02, -3561.37, 7937.01, 8618.47, 7465.04, 6390.16, 8666.71, 7447.82, 0.000, 0.000, 0.000, 17:13:17.808, 1560867197808
14, -3370.78, -3560.72, 7938.07, 8618.72, 7466.06, 6390.41, 8667.85, 7448.29, 0.000, 0.000, 0.000, 17:13:17.809, 1560867197809
15, -3370.08, -3558.76, 7938.58, 8619.08, 7466.24, 6390.43, 8667.96, 7448.23, 0.000, 0.000, 0.000, 17:13:17.809, 1560867197809
16, -3368.27, -3560.10, 7937.06, 8617.80, 7465.01, 6389.42, 8666.31, 7447.13, 0.008, 0.044, -1.032, 17:13:17.809, 1560867197809
17, -3369.93, -3559.98, 7936.97, 8617.76, 7464.88, 6390.30, 8666.11, 7446.82, 0.000, 0.000, 0.000, 17:13:17.810, 1560867197810
18, -3371.25, -3559.96, 7937.57, 8618.18, 7465.12, 6389.76, 8666.87, 7447.65, 0.000, 0.000, 0.000, 17:13:17.810, 1560867197810
19, -3369.23, -3562.82, 7938.62, 8619.37, 7466.02, 6390.05, 8668.16, 7448.85, 0.000, 0.000, 0.000, 17:13:17.810, 1560867197810
20, -3369.10, -3559.14, 7938.91, 8619.91, 7466.38, 6389.87, 8668.50, 7448.74, 0.000, 0.000, 0.000, 17:13:17.810, 1560867197810
21, -3369.01, -3561.21, 7937.42, 8618.81, 7465.21, 6389.04, 8667.38, 7447.87, 0.000, 0.000, 0.000, 17:13:17.810, 1560867197810
22, -3369.28, -3562.06, 7936.97, 8618.81, 7464.66, 6389.34, 8666.91, 7448.18, 0.000, 0.000, 0.000, 17:13:17.810, 1560867197810
23, -3370.84, -3561.57, 7937.46, 8618.45, 7464.30, 6389.89, 8666.64, 7448.29, 0.000, 0.000, 0.000, 17:13:17.810, 1560867197810
24, -3370.11, -3559.60, 7938.65, 8619.39, 7466.11, 6391.17, 8668.01, 7449.37, 0.000, 0.000, 0.000, 17:13:17.810, 1560867197810
25, -3370.40, -3560.05, 7938.71, 8619.10, 7466.11, 6391.21, 8667.74, 7448.52, 0.000, 0.000, 0.000, 17:13:17.810, 1560867197810
26, -3371.29, -3560.77, 7937.84, 8618.00, 7464.68, 6390.23, 8666.58, 7446.89, 0.008, 0.044, -1.026, 17:13:17.810, 1560867197810
27, -3371.11, -3560.45, 7937.28, 8616.98, 7464.07, 6388.80, 8665.41, 7446.84, 0.000, 0.000, 0.000, 17:13:17.810, 1560867197810
28, -3371.31, -3560.61, 7938.33, 8618.05, 7464.79, 6389.54, 8666.33, 7447.80, 0.000, 0.000, 0.000, 17:13:17.811, 1560867197811
29, -3369.73, -3558.42, 7938.85, 8619.17, 7465.95, 6390.77, 8667.65, 7448.81, 0.000, 0.000, 0.000, 17:13:17.811, 1560867197811
30, -3369.57, -3560.23, 7939.47, 8619.23, 7465.93, 6390.50, 8667.83, 7449.19, 0.000, 0.000, 0.000, 17:13:17.811, 1560867197811
31, -3370.96, -3562.73, 7938.85, 8618.92, 7465.48, 6389.80, 8667.20, 7449.08, 0.000, 0.000, 0.000, 17:13:17.811, 1560867197811
32, -3370.73, -3561.17, 7937.31, 8617.78, 7464.66, 6389.98, 8666.08, 7447.89, 0.000, 0.000, 0.000, 17:13:17.811, 1560867197811
33, -3368.34, -3561.06, 7938.18, 8617.85, 7465.33, 6390.88, 8666.89, 7448.67, 0.000, 0.000, 0.000, 17:13:17.811, 1560867197811
34, -3367.87, -3561.57, 7939.65, 8619.23, 7466.91, 6390.99, 8668.23, 7449.68, 0.000, 0.000, 0.000, 17:13:17.811, 1560867197811
35, -3369.23, -3560.01, 7939.38, 8619.70, 7467.07, 6390.36, 8668.57, 7449.48, 0.000, 0.000, 0.000, 17:13:17.811, 1560867197811
36, -3370.46, -3561.50, 7938.31, 8618.23, 7466.09, 6389.20, 8667.22, 7448.18, 0.006, 0.046, -1.028, 17:13:17.811, 1560867197811
37, -3371.72, -3563.47, 7937.57, 8617.42, 7465.30, 6389.96, 8666.33, 7447.44, 0.000, 0.000, 0.000, 17:13:17.812, 1560867197812
38, -3372.36, -3561.33, 7937.71, 8617.58, 7465.39, 6390.39, 8666.62, 7448.27, 0.000, 0.000, 0.000, 17:13:17.813, 1560867197813
39, -3369.55, -3560.01, 7939.41, 8618.88, 7466.31, 6390.79, 8667.89, 7449.70, 0.000, 0.000, 0.000, 17:13:17.813, 1560867197813
40, -3369.93, -3561.93, 7939.76, 8620.08, 7466.35, 6391.06, 8668.72, 7449.95, 0.000, 0.000, 0.000, 17:13:17.813, 1560867197813
41, -3372.05, -3561.80, 7937.62, 8618.12, 7465.17, 6389.42, 8666.89, 7448.47, 0.000, 0.000, 0.000, 17:13:17.813, 1560867197813
42, -3371.45, -3561.82, 7936.86, 8617.22, 7464.50, 6388.98, 8665.79, 7447.73, 0.000, 0.000, 0.000, 17:13:17.813, 1560867197813
43, -3370.73, -3562.15, 7937.80, 8617.76, 7465.12, 6389.78, 8666.46, 7447.94, 0.000, 0.000, 0.000, 17:13:17.813, 1560867197813
44, -3370.13, -3560.77, 7939.41, 8618.63, 7466.35, 6391.03, 8668.34, 7449.32, 0.000, 0.000, 0.000, 17:13:17.813, 1560867197813
45, -3368.34, -3560.79, 7939.32, 8619.57, 7467.23, 6392.26, 8669.62, 7450.04, 0.000, 0.000, 0.000, 17:13:17.813, 1560867197813
46, -3369.61, -3559.54, 7937.93, 8617.94, 7466.22, 6390.81, 8667.76, 7448.65, 0.014, 0.048, -1.038, 17:13:17.813, 1560867197813
47, -3369.50, -3559.27, 7937.46, 8617.27, 7465.46, 6389.65, 8666.75, 7447.78, 0.000, 0.000, 0.000, 17:13:17.813, 1560867197813
48, -3370.26, -3559.16, 7937.69, 8617.20, 7465.10, 6389.65, 8666.69, 7447.49, 0.000, 0.000, 0.000, 17:13:17.813, 1560867197813
49, -3368.43, -3560.01, 7938.09, 8618.18, 7465.91, 6391.24, 8667.69, 7448.70, 0.000, 0.000, 0.000, 17:13:17.813, 1560867197813
50, -3368.43, -3560.05, 7939.00, 8619.37, 7467.47, 6392.44, 8669.26, 7450.46, 0.000, 0.000, 0.000, 17:13:17.813, 1560867197813
51, -3369.44, -3559.74, 7938.83, 8618.59, 7466.78, 6391.77, 8668.59, 7450.19, 0.000, 0.000, 0.000, 17:13:17.813, 1560867197813
52, -3372.34, -3561.75, 7936.46, 8616.49, 7465.17, 6389.94, 8666.84, 7448.14, 0.000, 0.000, 0.000, 17:13:17.814, 1560867197814
53, -3371.45, -3562.18, 7936.57, 8617.18, 7465.68, 6389.80, 8667.09, 7448.12, 0.000, 0.000, 0.000, 17:13:17.814, 1560867197814
54, -3372.34, -3560.77, 7938.67, 8618.68, 7467.07, 6390.23, 8668.86, 7449.48, 0.000, 0.000, 0.000, 17:13:17.814, 1560867197814
55, -3370.60, -3560.99, 7939.00, 8618.90, 7466.69, 6390.90, 8669.03, 7449.79, 0.000, 0.000, 0.000, 17:13:17.814, 1560867197814
56, -3371.89, -3563.02, 7937.86, 8618.14, 7465.95, 6390.83, 8667.83, 7448.74, 0.008, 0.048, -1.036, 17:13:17.814, 1560867197814
57, -3371.78, -3562.18, 7937.01, 8617.36, 7465.10, 6389.72, 8666.73, 7447.78, 0.000, 0.000, 0.000, 17:13:17.815, 1560867197815
58, -3369.39, -3560.92, 7937.69, 8617.16, 7465.15, 6390.45, 8667.20, 7448.07, 0.000, 0.000, 0.000, 17:13:17.815, 1560867197815
59, -3367.49, -3559.96, 7938.33, 8618.59, 7466.20, 6390.88, 8668.36, 7449.23, 0.000, 0.000, 0.000, 17:13:17.815, 1560867197815
60, -3370.67, -3557.66, 7938.24, 8619.03, 7466.44, 6390.65, 8668.68, 7449.90, 0.000, 0.000, 0.000, 17:13:17.815, 1560867197815
61, -3372.05, -3559.65, 7937.69, 8617.96, 7465.06, 6389.07, 8667.54, 7449.08, 0.000, 0.000, 0.000, 17:13:17.815, 1560867197815
62, -3369.30, -3560.10, 7936.90, 8616.62, 7464.23, 6388.78, 8666.42, 7447.42, 0.000, 0.000, 0.000, 17:13:17.815, 1560867197815
63, -3369.01, -3561.46, 7937.08, 8617.00, 7465.15, 6388.93, 8666.75, 7447.91, 0.000, 0.000, 0.000, 17:13:17.815, 1560867197815
64, -3370.08, -3562.69, 7937.28, 8617.40, 7465.93, 6389.31, 8667.69, 7448.00, 0.000, 0.000, 0.000, 17:13:17.815, 1560867197815
65, -3370.62, -3560.79, 7938.29, 8618.45, 7466.71, 6390.18, 8668.97, 7449.19, 0.000, 0.000, 0.000, 17:13:17.815, 1560867197815
66, -3371.31, -3560.54, 7937.91, 8617.96, 7466.22, 6389.94, 8668.30, 7449.21, 0.006, 0.054, -1.040, 17:13:17.816, 1560867197816
67, -3370.22, -3560.57, 7935.92, 8616.40, 7464.74, 6388.89, 8666.29, 7447.76, 0.000, 0.000, 0.000, 17:13:17.816, 1560867197816
68, -3370.13, -3559.49, 7935.96, 8615.68, 7464.07, 6389.40, 8666.08, 7447.29, 0.000, 0.000, 0.000, 17:13:17.817, 1560867197817
69, -3369.21, -3559.54, 7937.39, 8617.11, 7464.95, 6390.45, 8667.65, 7449.10, 0.000, 0.000, 0.000, 17:13:17.817, 1560867197817
70, -3368.12, -3560.83, 7938.47, 8618.12, 7466.38, 6390.45, 8668.65, 7449.88, 0.000, 0.000, 0.000, 17:13:17.817, 1560867197817
71, -3367.83, -3561.24, 7937.64, 8617.74, 7465.50, 6390.12, 8667.85, 7449.34, 0.000, 0.000, 0.000, 17:13:17.817, 1560867197817
72, -3368.77, -3559.76, 7936.77, 8616.71, 7464.57, 6389.11, 8666.69, 7447.44, 0.000, 0.000, 0.000, 17:13:17.817, 1560867197817
73, -3368.59, -3559.16, 7937.75, 8616.96, 7464.99, 6389.22, 8667.09, 7447.69, 0.000, 0.000, 0.000, 17:13:17.817, 1560867197817
74, -3369.03, -3558.98, 7939.41, 8618.25, 7465.91, 6389.78, 8668.32, 7449.14, 0.000, 0.000, 0.000, 17:13:17.817, 1560867197817
75, -3369.32, -3560.25, 7939.47, 8618.07, 7466.33, 6389.60, 8668.54, 7449.48, 0.000, 0.000, 0.000, 17:13:17.817, 1560867197817
76, -3368.45, -3560.68, 7937.98, 8616.78, 7465.50, 6388.42, 8667.45, 7448.14, 0.010, 0.052, -1.030, 17:13:17.817, 1560867197817
77, -3370.35, -3559.56, 7937.08, 8616.22, 7464.99, 6389.18, 8666.64, 7447.31, 0.000, 0.000, 0.000, 17:13:17.817, 1560867197817
78, -3370.78, -3560.28, 7936.90, 8617.07, 7465.46, 6390.34, 8666.91, 7447.47, 0.000, 0.000, 0.000, 17:13:17.817, 1560867197817
79, -3370.44, -3560.95, 7937.22, 8617.89, 7465.64, 6390.10, 8667.72, 7447.51, 0.000, 0.000, 0.000, 17:13:17.817, 1560867197817
80, -3370.06, -3560.10, 7937.62, 8618.14, 7465.71, 6390.70, 8668.39, 7447.44, 0.000, 0.000, 0.000, 17:13:17.817, 1560867197817
81, -3370.46, -3558.98, 7937.01, 8617.67, 7465.28, 6390.54, 8667.80, 7447.98, 0.000, 0.000, 0.000, 17:13:17.818, 1560867197818
82, -3369.48, -3559.63, 7936.46, 8616.64, 7464.59, 6389.67, 8666.73, 7447.96, 0.000, 0.000, 0.000, 17:13:17.818, 1560867197818
83, -3368.85, -3560.12, 7937.33, 8617.67, 7465.62, 6389.54, 8667.36, 7448.74, 0.000, 0.000, 0.000, 17:13:17.818, 1560867197818
84, -3368.09, -3560.57, 7938.51, 8619.01, 7467.02, 6389.83, 8668.74, 7449.66, 0.000, 0.000, 0.000, 17:13:17.818, 1560867197818
85, -3368.45, -3562.47, 7939.14, 8619.15, 7467.27, 6390.86, 8669.66, 7449.72, 0.000, 0.000, 0.000, 17:13:17.818, 1560867197818
86, -3368.27, -3560.79, 7937.86, 8618.50, 7466.35, 6391.88, 8668.95, 7448.81, 0.010, 0.052, -1.028, 17:13:17.818, 1560867197818
87, -3369.64, -3560.34, 7936.68, 8617.69, 7465.84, 6390.56, 8667.51, 7448.03, 0.000, 0.000, 0.000, 17:13:17.819, 1560867197819
88, -3368.27, -3560.66, 7936.28, 8617.27, 7465.73, 6390.10, 8667.11, 7448.29, 0.000, 0.000, 0.000, 17:13:17.819, 1560867197819
89, -3368.34, -3560.45, 7937.13, 8617.80, 7465.93, 6390.45, 8668.30, 7448.58, 0.000, 0.000, 0.000, 17:13:17.819, 1560867197819
90, -3369.91, -3560.90, 7938.02, 8618.63, 7466.22, 6391.03, 8668.97, 7449.17, 0.000, 0.000, 0.000, 17:13:17.819, 1560867197819
91, -3370.64, -3560.57, 7937.80, 8617.67, 7465.80, 6390.52, 8667.96, 7448.58, 0.000, 0.000, 0.000, 17:13:17.820, 1560867197820
92, -3369.86, -3560.39, 7936.61, 8616.49, 7464.39, 6389.63, 8666.35, 7447.69, 0.000, 0.000, 0.000, 17:13:17.820, 1560867197820
93, -3370.87, -3558.82, 7936.70, 8616.22, 7465.06, 6389.78, 8666.67, 7448.41, 0.000, 0.000, 0.000, 17:13:17.820, 1560867197820
94, -3372.59, -3560.25, 7937.69, 8617.85, 7466.33, 6389.98, 8668.39, 7448.85, 0.000, 0.000, 0.000, 17:13:17.820, 1560867197820
95, -3369.21, -3560.54, 7938.74, 8618.74, 7466.18, 6390.30, 8669.15, 7449.41, 0.000, 0.000, 0.000, 17:13:17.820, 1560867197820
96, -3369.64, -3558.91, 7937.86, 8617.74, 7465.46, 6390.10, 8668.36, 7448.81, 0.010, 0.054, -1.024, 17:13:17.820, 1560867197820
97, -3368.68, -3559.83, 7936.43, 8616.28, 7464.83, 6389.89, 8667.02, 7447.69, 0.000, 0.000, 0.000, 17:13:17.821, 1560867197821
98, -3368.88, -3560.77, 7936.95, 8616.24, 7464.88, 6389.87, 8666.71, 7447.67, 0.000, 0.000, 0.000, 17:13:17.821, 1560867197821
99, -3371.29, -3560.01, 7938.94, 8618.59, 7466.98, 6390.45, 8669.15, 7449.23, 0.000, 0.000, 0.000, 17:13:17.821, 1560867197821
100, -3371.22, -3560.01, 7939.79, 8619.68, 7467.83, 6391.48, 8670.44, 7450.13, 0.000, 0.000, 0.000, 17:13:17.821, 1560867197821
101, -3370.80, -3561.17, 7938.76, 8619.03, 7466.73, 6390.77, 8669.46, 7449.93, 0.000, 0.000, 0.000, 17:13:17.821, 1560867197821
102, -3370.29, -3562.67, 7937.73, 8618.18, 7465.55, 6391.28, 8668.07, 7448.58, 0.000, 0.000, 0.000, 17:13:17.821, 1560867197821
103, -3371.05, -3560.72, 7937.42, 8617.36, 7465.46, 6391.21, 8667.31, 7447.82, 0.000, 0.000, 0.000, 17:13:17.821, 1560867197821
104, -3371.38, -3559.78, 7936.84, 8617.36, 7465.33, 6390.86, 8667.89, 7447.73, 0.000, 0.000, 0.000, 17:13:17.822, 1560867197822
105, -3372.03, -3559.31, 7938.31, 8618.59, 7466.51, 6391.79, 8669.88, 7449.23, 0.000, 0.000, 0.000, 17:13:17.822, 1560867197822
106, -3370.80, -3560.70, 7938.53, 8618.83, 7466.33, 6391.32, 8669.37, 7449.34, 0.014, 0.052, -1.024, 17:13:17.822, 1560867197822
107, -3371.45, -3559.87, 7937.28, 8617.16, 7464.50, 6389.22, 8667.20, 7448.12, 0.000, 0.000, 0.000, 17:13:17.822, 1560867197822
108, -3372.27, -3560.10, 7937.46, 8617.56, 7465.26, 6389.78, 8667.40, 7448.76, 0.000, 0.000, 0.000, 17:13:17.822, 1560867197822
109, -3370.11, -3559.94, 7938.07, 8618.30, 7466.09, 6390.83, 8668.48, 7449.75, 0.000, 0.000, 0.000, 17:13:17.823, 1560867197823
110, -3368.07, -3558.53, 7938.71, 8618.03, 7466.13, 6390.88, 8669.15, 7449.55, 0.000, 0.000, 0.000, 17:13:17.823, 1560867197823
111, -3370.17, -3557.19, 7937.53, 8618.12, 7465.50, 6389.94, 8668.50, 7448.56, 0.000, 0.000, 0.000, 17:13:17.823, 1560867197823
112, -3369.57, -3557.53, 7937.13, 8617.07, 7465.46, 6390.61, 8667.80, 7448.12, 0.000, 0.000, 0.000, 17:13:17.823, 1560867197823
113, -3370.55, -3558.58, 7937.62, 8617.02, 7466.09, 6390.45, 8668.21, 7448.52, 0.000, 0.000, 0.000, 17:13:17.823, 1560867197823
114, -3370.08, -3560.50, 7938.87, 8618.77, 7467.18, 6391.03, 8670.02, 7450.31, 0.000, 0.000, 0.000, 17:13:17.823, 1560867197823
115, -3367.89, -3559.05, 7938.38, 8618.81, 7466.91, 6390.21, 8670.13, 7450.17, 0.000, 0.000, 0.000, 17:13:17.824, 1560867197824
116, -3368.43, -3560.54, 7938.49, 8618.47, 7466.22, 6389.72, 8669.55, 7449.70, 0.008, 0.052, -1.030, 17:13:17.824, 1560867197824
117, -3368.61, -3562.58, 7937.26, 8617.25, 7465.39, 6389.87, 8667.78, 7448.94, 0.000, 0.000, 0.000, 17:13:17.824, 1560867197824
118, -3369.73, -3560.23, 7936.90, 8617.13, 7465.28, 6390.90, 8667.65, 7448.96, 0.000, 0.000, 0.000, 17:13:17.824, 1560867197824
119, -3369.57, -3560.54, 7938.07, 8618.30, 7466.26, 6391.10, 8669.26, 7450.02, 0.000, 0.000, 0.000, 17:13:17.824, 1560867197824
120, -3368.94, -3560.54, 7937.93, 8618.14, 7466.11, 6390.61, 8669.12, 7449.86, 0.000, 0.000, 0.000, 17:13:18.283, 1560867198283
121, -3369.66, -3560.68, 7937.46, 8617.58, 7465.44, 6389.36, 8668.52, 7448.85, 0.000, 0.000, 0.000, 17:13:18.283, 1560867198283
122, -3370.80, -3558.60, 7937.73, 8617.54, 7465.77, 6389.65, 8667.96, 7448.34, 0.000, 0.000, 0.000, 17:13:18.284, 1560867198284
123, -3372.16, -3559.63, 7938.49, 8617.78, 7466.13, 6389.94, 8668.14, 7448.94, 0.000, 0.000, 0.000, 17:13:18.284, 1560867198284
124, -3371.85, -3560.39, 7937.98, 8618.12, 7466.82, 6390.68, 8669.26, 7449.34, 0.000, 0.000, 0.000, 17:13:18.284, 1560867198284
125, -3371.89, -3558.78, 7938.02, 8618.23, 7467.05, 6390.72, 8669.86, 7449.84, 0.012, 0.054, -1.028, 17:13:18.284, 1560867198284
126, -3370.73, -3560.45, 7937.51, 8617.02, 7465.66, 6389.60, 8668.70, 7449.14, 0.000, 0.000, 0.000, 17:13:18.284, 1560867198284
127, -3368.81, -3560.61, 7936.95, 8616.60, 7465.21, 6389.65, 8668.10, 7448.54, 0.000, 0.000, 0.000, 17:13:18.284, 1560867198284
128, -3370.35, -3560.66, 7936.70, 8617.18, 7465.37, 6389.58, 8668.18, 7448.90, 0.000, 0.000, 0.000, 17:13:18.284, 1560867198284
129, -3367.83, -3559.43, 7939.34, 8619.26, 7467.25, 6390.99, 8670.26, 7451.02, 0.000, 0.000, 0.000, 17:13:18.284, 1560867198284
130, -3369.82, -3559.81, 7939.67, 8619.44, 7467.23, 6390.99, 8670.49, 7450.71, 0.000, 0.000, 0.000, 17:13:18.285, 1560867198285
131, -3371.22, -3561.42, 7937.62, 8617.25, 7465.28, 6389.22, 8668.36, 7448.90, 0.000, 0.000, 0.000, 17:13:18.285, 1560867198285
132, -3372.99, -3562.15, 7937.26, 8616.71, 7465.12, 6389.51, 8667.58, 7449.12, 0.000, 0.000, 0.000, 17:13:18.285, 1560867198285
133, -3371.02, -3560.45, 7938.36, 8617.13, 7465.64, 6390.94, 8668.43, 7449.19, 0.000, 0.000, 0.000, 17:13:18.285, 1560867198285
134, -3369.12, -3561.75, 7938.51, 8617.94, 7466.49, 6391.88, 8669.41, 7449.59, 0.000, 0.000, 0.000, 17:13:18.286, 1560867198286
135, -3370.46, -3561.73, 7938.83, 8618.72, 7467.23, 6391.44, 8670.06, 7449.97, 0.006, 0.052, -1.030, 17:13:18.286, 1560867198286
136, -3370.64, -3561.01, 7938.58, 8618.34, 7467.56, 6390.32, 8670.31, 7451.15, 0.000, 0.000, 0.000, 17:13:18.287, 1560867198287
137, -3370.80, -3561.48, 7936.46, 8615.79, 7465.73, 6389.89, 8668.30, 7449.72, 0.000, 0.000, 0.000, 17:13:18.287, 1560867198287
138, -3371.89, -3560.99, 7936.32, 8615.21, 7465.37, 6390.39, 8667.80, 7449.25, 0.000, 0.000, 0.000, 17:13:18.287, 1560867198287
139, -3371.96, -3559.09, 7937.75, 8616.71, 7466.71, 6391.24, 8669.77, 7450.19, 0.000, 0.000, 0.000, 17:13:18.287, 1560867198287
140, -3371.89, -3558.53, 7938.22, 8617.25, 7467.67, 6391.24, 8670.64, 7450.69, 0.000, 0.000, 0.000, 17:13:18.287, 1560867198287
141, -3370.53, -3559.02, 7937.19, 8616.62, 7466.78, 6391.44, 8669.64, 7450.31, 0.000, 0.000, 0.000, 17:13:18.287, 1560867198287
142, -3370.29, -3560.32, 7936.52, 8616.06, 7465.68, 6391.17, 8668.90, 7449.50, 0.000, 0.000, 0.000, 17:13:18.288, 1560867198288
143, -3371.49, -3560.48, 7937.04, 8615.59, 7466.15, 6390.07, 8669.15, 7450.08, 0.000, 0.000, 0.000, 17:13:18.288, 1560867198288
144, -3372.68, -3560.43, 7937.17, 8615.66, 7466.33, 6390.54, 8669.75, 7450.55, 0.000, 0.000, 0.000, 17:13:18.288, 1560867198288
145, -3371.85, -3560.28, 7937.22, 8616.66, 7467.00, 6390.83, 8670.62, 7450.75, 0.004, 0.052, -1.030, 17:13:18.288, 1560867198288
146, -3371.67, -3562.02, 7937.42, 8615.90, 7466.89, 6390.86, 8670.42, 7450.26, 0.000, 0.000, 0.000, 17:13:18.296, 1560867198296
147, -3370.89, -3560.57, 7937.42, 8615.12, 7466.98, 6391.44, 8669.95, 7450.08, 0.000, 0.000, 0.000, 17:13:18.296, 1560867198296
148, -3371.69, -3558.73, 7937.42, 8615.23, 7466.35, 6391.37, 8669.66, 7449.75, 0.000, 0.000, 0.000, 17:13:18.296, 1560867198296
149, -3369.77, -3560.74, 7937.93, 8616.33, 7467.07, 6391.12, 8670.60, 7450.35, 0.000, 0.000, 0.000, 17:13:18.296, 1560867198296
150, -3370.24, -3560.72, 7937.53, 8616.60, 7467.25, 6391.10, 8671.45, 7451.02, 0.000, 0.000, 0.000, 17:13:18.296, 1560867198296
151, -3369.41, -3559.31, 7936.57, 8615.73, 7466.02, 6390.79, 8670.22, 7450.53, 0.000, 0.000, 0.000, 17:13:18.297, 1560867198297
152, -3367.49, -3560.86, 7935.41, 8613.69, 7465.30, 6389.78, 8668.25, 7449.50, 0.000, 0.000, 0.000, 17:13:18.297, 1560867198297
153, -3368.27, -3561.86, 7935.96, 8614.88, 7466.22, 6390.50, 8669.30, 7450.53, 0.000, 0.000, 0.000, 17:13:18.297, 1560867198297
154, -3370.40, -3559.40, 7936.34, 8615.66, 7467.00, 6390.94, 8670.49, 7450.64, 0.000, 0.000, 0.000, 17:13:18.297, 1560867198297
155, -3370.60, -3558.67, 7936.28, 8615.64, 7467.00, 6391.88, 8671.22, 7450.42, 0.002, 0.052, -1.034, 17:13:18.297, 1560867198297
156, -3370.84, -3559.36, 7936.03, 8615.95, 7466.76, 6391.32, 8671.11, 7450.57, 0.000, 0.000, 0.000, 17:13:18.298, 1560867198298
157, -3373.03, -3561.88, 7935.11, 8614.67, 7465.59, 6390.12, 8669.53, 7449.10, 0.000, 0.000, 0.000, 17:13:18.298, 1560867198298
158, -3369.61, -3561.77, 7935.65, 8614.70, 7466.29, 6390.25, 8669.75, 7449.93, 0.000, 0.000, 0.000, 17:13:18.299, 1560867198299
159, -3370.33, -3560.12, 7936.52, 8615.55, 7467.02, 6390.86, 8670.67, 7450.10, 0.000, 0.000, 0.000, 17:13:18.299, 1560867198299
160, -3371.51, -3560.50, 7936.10, 8615.59, 7466.67, 6391.62, 8670.46, 7449.52, 0.000, 0.000, 0.000, 17:13:18.299, 1560867198299
161, -3371.56, -3559.49, 7935.67, 8615.03, 7466.35, 6390.77, 8670.06, 7449.61, 0.000, 0.000, 0.000, 17:13:18.299, 1560867198299
162, -3370.44, -3560.28, 7935.18, 8614.27, 7465.46, 6390.36, 8668.92, 7449.41, 0.000, 0.000, 0.000, 17:13:18.299, 1560867198299
163, -3369.75, -3560.92, 7935.07, 8614.12, 7465.26, 6390.43, 8668.52, 7449.30, 0.000, 0.000, 0.000, 17:13:18.299, 1560867198299
164, -3370.89, -3559.47, 7936.52, 8616.04, 7466.82, 6391.10, 8670.17, 7450.48, 0.000, 0.000, 0.000, 17:13:18.299, 1560867198299
165, -3371.38, -3559.49, 7937.08, 8616.35, 7466.94, 6391.10, 8670.87, 7450.37, 0.006, 0.050, -1.032, 17:13:18.300, 1560867198300
166, -3369.68, -3560.45, 7936.72, 8615.30, 7466.13, 6390.59, 8670.08, 7449.34, 0.000, 0.000, 0.000, 17:13:18.300, 1560867198300
167, -3370.06, -3560.01, 7935.72, 8615.17, 7465.84, 6390.59, 8669.19, 7449.57, 0.000, 0.000, 0.000, 17:13:18.300, 1560867198300
168, -3372.03, -3559.67, 7935.63, 8615.30, 7465.17, 6390.39, 8668.74, 7450.31, 0.000, 0.000, 0.000, 17:13:18.300, 1560867198300
169, -3372.03, -3560.10, 7936.12, 8616.42, 7466.58, 6390.77, 8669.86, 7450.98, 0.000, 0.000, 0.000, 17:13:18.300, 1560867198300
170, -3370.35, -3559.16, 7936.01, 8616.35, 7467.29, 6390.56, 8670.42, 7450.71, 0.000, 0.000, 0.000, 17:13:18.301, 1560867198301
171, -3370.13, -3561.17, 7936.43, 8615.70, 7466.40, 6390.30, 8669.88, 7450.13, 0.000, 0.000, 0.000, 17:13:18.301, 1560867198301
172, -3372.12, -3561.62, 7936.84, 8615.99, 7466.31, 6390.77, 8669.44, 7449.57, 0.000, 0.000, 0.000, 17:13:18.302, 1560867198302
173, -3372.83, -3559.56, 7936.63, 8615.59, 7465.59, 6390.88, 8668.92, 7449.14, 0.000, 0.000, 0.000, 17:13:18.302, 1560867198302
174, -3369.68, -3559.31, 7936.23, 8615.41, 7465.86, 6390.54, 8668.99, 7449.12, 0.000, 0.000, 0.000, 17:13:18.302, 1560867198302
175, -3368.79, -3560.72, 7937.10, 8617.02, 7466.89, 6392.15, 8670.33, 7449.86, 0.004, 0.054, -1.040, 17:13:18.302, 1560867198302
176, -3371.40, -3561.06, 7936.84, 8616.55, 7466.40, 6391.50, 8669.95, 7449.70, 0.000, 0.000, 0.000, 17:13:18.303, 1560867198303
177, -3370.58, -3558.84, 7935.38, 8615.30, 7465.37, 6390.27, 8668.43, 7448.47, 0.000, 0.000, 0.000, 17:13:18.304, 1560867198304
178, -3371.34, -3557.97, 7935.83, 8614.90, 7465.55, 6391.15, 8668.74, 7449.25, 0.000, 0.000, 0.000, 17:13:18.304, 1560867198304
179, -3373.21, -3559.16, 7936.30, 8615.75, 7466.33, 6391.55, 8669.71, 7450.75, 0.000, 0.000, 0.000, 17:13:18.305, 1560867198305
180, -3371.11, -3559.14, 7936.52, 8616.84, 7466.89, 6391.35, 8670.22, 7450.69, 0.000, 0.000, 0.000, 17:13:18.305, 1560867198305
181, -3370.53, -3560.07, 7936.52, 8616.66, 7467.00, 6390.83, 8669.68, 7449.95, 0.000, 0.000, 0.000, 17:13:18.306, 1560867198306
182, -3370.71, -3560.12, 7935.09, 8614.83, 7465.62, 6389.94, 8668.18, 7448.70, 0.000, 0.000, 0.000, 17:13:18.306, 1560867198306
183, -3371.13, -3560.03, 7935.27, 8615.05, 7465.50, 6390.56, 8668.21, 7448.63, 0.000, 0.000, 0.000, 17:13:18.307, 1560867198307
184, -3369.95, -3560.23, 7936.17, 8616.35, 7465.88, 6390.68, 8669.75, 7449.28, 0.000, 0.000, 0.000, 17:13:18.307, 1560867198307
185, -3371.40, -3560.83, 7937.22, 8617.11, 7466.67, 6390.97, 8670.93, 7450.48, 0.004, 0.052, -1.038, 17:13:18.308, 1560867198308
186, -3371.51, -3559.87, 7935.90, 8615.95, 7466.00, 6389.25, 8669.33, 7448.88, 0.000, 0.000, 0.000, 17:13:18.308, 1560867198308
187, -3370.53, -3559.90, 7934.78, 8614.79, 7465.33, 6389.45, 8668.27, 7448.67, 0.000, 0.000, 0.000, 17:13:18.309, 1560867198309
188, -3370.11, -3559.43, 7935.27, 8615.19, 7465.57, 6390.79, 8668.41, 7449.05, 0.000, 0.000, 0.000, 17:13:18.309, 1560867198309
189, -3371.45, -3560.21, 7936.48, 8616.96, 7466.85, 6391.66, 8669.75, 7449.93, 0.000, 0.000, 0.000, 17:13:18.309, 1560867198309
190, -3369.30, -3560.61, 7937.53, 8617.98, 7467.63, 6391.73, 8670.78, 7450.64, 0.000, 0.000, 0.000, 17:13:18.309, 1560867198309
191, -3371.25, -3560.61, 7936.95, 8616.93, 7466.62, 6390.77, 8669.82, 7450.02, 0.000, 0.000, 0.000, 17:13:18.309, 1560867198309
192, -3372.52, -3560.68, 7935.41, 8615.19, 7465.50, 6389.25, 8668.23, 7449.25, 0.000, 0.000, 0.000, 17:13:18.309, 1560867198309
193, -3371.67, -3561.21, 7935.38, 8615.46, 7464.79, 6389.94, 8668.03, 7449.14, 0.000, 0.000, 0.000, 17:13:18.309, 1560867198309
194, -3370.31, -3561.50, 7935.74, 8616.28, 7465.55, 6390.10, 8668.77, 7449.72, 0.000, 0.000, 0.000, 17:13:18.310, 1560867198310
195, -3369.88, -3561.01, 7936.05, 8616.44, 7465.97, 6389.54, 8669.08, 7449.03, 0.008, 0.054, -1.038, 17:13:18.310, 1560867198310
196, -3370.89, -3559.92, 7936.52, 8616.73, 7465.84, 6389.94, 8668.92, 7448.25, 0.000, 0.000, 0.000, 17:13:18.310, 1560867198310
197, -3368.72, -3559.45, 7935.74, 8615.84, 7465.17, 6389.78, 8668.25, 7448.52, 0.000, 0.000, 0.000, 17:13:18.310, 1560867198310
198, -3370.37, -3558.26, 7935.74, 8615.95, 7465.77, 6389.74, 8668.23, 7449.10, 0.000, 0.000, 0.000, 17:13:18.310, 1560867198310
199, -3370.80, -3559.54, 7935.25, 8616.11, 7465.95, 6389.76, 8668.32, 7448.52, 0.000, 0.000, 0.000, 17:13:18.311, 1560867198311
200, -3370.69, -3558.24, 7936.50, 8617.38, 7466.89, 6389.80, 8670.02, 7449.72, 0.000, 0.000, 0.000, 17:13:18.311, 1560867198311
201, -3370.96, -3557.91, 7936.79, 8617.65, 7467.09, 6389.96, 8670.08, 7450.13, 0.000, 0.000, 0.000, 17:13:18.311, 1560867198311
202, -3371.69, -3559.94, 7937.06, 8617.13, 7466.20, 6390.45, 8669.10, 7449.57, 0.000, 0.000, 0.000, 17:13:18.311, 1560867198311
203, -3370.53, -3560.14, 7936.86, 8616.58, 7465.68, 6391.84, 8668.57, 7448.92, 0.000, 0.000, 0.000, 17:13:18.311, 1560867198311
204, -3371.11, -3559.94, 7937.35, 8616.69, 7465.68, 6391.79, 8669.10, 7449.28, 0.000, 0.000, 0.000, 17:13:18.311, 1560867198311
205, -3372.68, -3560.88, 7938.38, 8617.69, 7467.00, 6391.19, 8669.71, 7449.81, 0.010, 0.054, -1.036, 17:13:18.311, 1560867198311
206, -3370.67, -3558.40, 7937.73, 8617.40, 7466.87, 6391.32, 8669.82, 7449.46, 0.000, 0.000, 0.000, 17:13:18.311, 1560867198311
207, -3369.17, -3559.87, 7935.72, 8615.81, 7464.86, 6389.94, 8667.76, 7447.56, 0.000, 0.000, 0.000, 17:13:18.312, 1560867198312
208, -3368.68, -3558.55, 7935.49, 8615.86, 7464.32, 6389.94, 8667.18, 7447.69, 0.000, 0.000, 0.000, 17:13:18.312, 1560867198312
209, -3369.64, -3560.54, 7936.95, 8617.11, 7465.95, 6391.24, 8668.65, 7449.39, 0.000, 0.000, 0.000, 17:13:18.312, 1560867198312
210, -3370.31, -3560.50, 7937.62, 8617.69, 7466.58, 6391.79, 8669.55, 7449.81, 0.000, 0.000, 0.000, 17:13:18.312, 1560867198312
211, -3371.16, -3560.43, 7936.52, 8617.02, 7465.64, 6390.59, 8668.45, 7448.79, 0.000, 0.000, 0.000, 17:13:18.312, 1560867198312
212, -3372.23, -3560.57, 7935.05, 8616.08, 7465.17, 6389.83, 8667.29, 7448.14, 0.000, 0.000, 0.000, 17:13:18.312, 1560867198312
213, -3370.51, -3559.56, 7935.38, 8616.46, 7465.50, 6390.59, 8667.31, 7448.47, 0.000, 0.000, 0.000, 17:13:18.312, 1560867198312
214, -3370.53, -3560.41, 7936.75, 8617.09, 7466.49, 6390.43, 8668.30, 7449.41, 0.000, 0.000, 0.000, 17:13:18.312, 1560867198312
215, -3370.37, -3561.62, 7937.33, 8618.03, 7466.29, 6390.43, 8669.35, 7449.55, 0.010, 0.048, -1.038, 17:13:18.313, 1560867198313
216, -3373.37, -3558.87, 7936.79, 8617.78, 7465.62, 6389.74, 8668.70, 7448.79, 0.000, 0.000, 0.000, 17:13:18.313, 1560867198313
217, -3372.88, -3560.95, 7935.79, 8616.06, 7464.68, 6389.54, 8667.18, 7447.73, 0.000, 0.000, 0.000, 17:13:18.313, 1560867198313
218, -3372.68, -3562.55, 7935.72, 8616.13, 7464.77, 6389.65, 8667.13, 7448.12, 0.000, 0.000, 0.000, 17:13:18.313, 1560867198313
219, -3371.09, -3559.29, 7937.26, 8616.89, 7466.09, 6390.32, 8668.07, 7448.79, 0.000, 0.000, 0.000, 17:13:18.313, 1560867198313
220, -3370.26, -3560.07, 7937.75, 8617.85, 7467.02, 6391.12, 8669.19, 7449.30, 0.000, 0.000, 0.000, 17:13:18.313, 1560867198313
221, -3370.67, -3560.66, 7937.51, 8617.94, 7467.16, 6391.62, 8669.37, 7448.90, 0.000, 0.000, 0.000, 17:13:18.313, 1560867198313
222, -3371.22, -3560.30, 7936.39, 8616.80, 7465.75, 6390.65, 8667.76, 7447.89, 0.000, 0.000, 0.000, 17:13:18.313, 1560867198313
223, -3369.64, -3561.91, 7936.34, 8616.49, 7465.66, 6390.90, 8667.27, 7447.87, 0.000, 0.000, 0.000, 17:13:18.313, 1560867198313
224, -3371.00, -3560.99, 7936.97, 8617.16, 7466.67, 6391.84, 8668.61, 7448.88, 0.000, 0.000, 0.000, 17:13:18.314, 1560867198314
225, -3369.99, -3561.57, 7937.46, 8618.00, 7467.20, 6391.48, 8669.41, 7449.48, 0.012, 0.052, -1.036, 17:13:18.314, 1560867198314
226, -3369.48, -3560.61, 7937.08, 8617.11, 7466.44, 6390.07, 8668.77, 7448.72, 0.000, 0.000, 0.000, 17:13:18.314, 1560867198314
227, -3371.22, -3558.93, 7936.39, 8615.79, 7465.39, 6389.89, 8667.51, 7447.69, 0.000, 0.000, 0.000, 17:13:18.314, 1560867198314
228, -3371.67, -3559.72, 7936.28, 8616.78, 7465.55, 6390.77, 8667.74, 7447.78, 0.000, 0.000, 0.000, 17:13:18.314, 1560867198314
229, -3370.84, -3559.60, 7937.01, 8618.18, 7467.09, 6391.77, 8669.03, 7448.96, 0.000, 0.000, 0.000, 17:13:18.314, 1560867198314
230, -3369.73, -3561.17, 7937.98, 8618.23, 7467.87, 6391.21, 8670.04, 7449.43, 0.000, 0.000, 0.000, 17:13:18.314, 1560867198314
231, -3370.22, -3563.00, 7937.91, 8618.23, 7467.58, 6390.56, 8670.20, 7449.95, 0.000, 0.000, 0.000, 17:13:18.314, 1560867198314
232, -3370.91, -3561.84, 7936.17, 8617.18, 7465.57, 6389.67, 8668.41, 7448.67, 0.000, 0.000, 0.000, 17:13:18.315, 1560867198315
233, -3370.20, -3560.63, 7936.93, 8617.02, 7465.95, 6390.39, 8668.57, 7448.52, 0.000, 0.000, 0.000, 17:13:18.315, 1560867198315
234, -3370.17, -3560.07, 7938.11, 8617.51, 7467.20, 6391.86, 8669.53, 7449.14, 0.008, 0.046, -1.038, 17:13:18.315, 1560867198315
235, -3370.89, -3560.41, 7938.83, 8618.30, 7467.47, 6392.67, 8670.22, 7449.88, 0.000, 0.000, 0.000, 17:13:18.315, 1560867198315
236, -3372.30, -3560.77, 7937.77, 8618.47, 7467.23, 6392.44, 8669.71, 7449.79, 0.000, 0.000, 0.000, 17:13:18.315, 1560867198315
237, -3371.81, -3559.83, 7936.84, 8616.75, 7466.51, 6390.74, 8668.54, 7449.68, 0.000, 0.000, 0.000, 17:13:18.315, 1560867198315
238, -3369.95, -3560.61, 7936.17, 8615.95, 7466.40, 6389.83, 8668.01, 7449.14, 0.000, 0.000, 0.000, 17:13:18.315, 1560867198315
239, -3369.66, -3560.03, 7937.01, 8616.96, 7467.25, 6391.26, 8669.15, 7449.23, 0.000, 0.000, 0.000, 17:13:18.316, 1560867198316
240, -3372.07, -3559.58, 7938.20, 8617.85, 7467.70, 6392.64, 8669.84, 7449.41, 0.000, 0.000, 0.000, 17:13:18.764, 1560867198764
241, -3370.55, -3560.43, 7936.84, 8618.07, 7466.85, 6392.08, 8669.82, 7449.70, 0.000, 0.000, 0.000, 17:13:18.764, 1560867198764
242, -3370.69, -3560.21, 7935.29, 8616.87, 7465.55, 6391.08, 8668.25, 7449.03, 0.000, 0.000, 0.000, 17:13:18.765, 1560867198765
243, -3370.93, -3561.12, 7935.16, 8616.24, 7465.66, 6390.59, 8667.60, 7449.21, 0.000, 0.000, 0.000, 17:13:18.765, 1560867198765
244, -3370.13, -3560.63, 7936.03, 8616.62, 7465.48, 6389.94, 8668.07, 7449.03, 0.008, 0.050, -1.030, 17:13:18.766, 1560867198766
245, -3370.44, -3561.24, 7937.80, 8617.98, 7466.64, 6391.15, 8669.82, 7449.39, 0.000, 0.000, 0.000, 17:13:18.766, 1560867198766
246, -3370.80, -3560.14, 7937.57, 8617.71, 7466.47, 6391.10, 8669.48, 7449.03, 0.000, 0.000, 0.000, 17:13:18.766, 1560867198766
247, -3371.18, -3559.09, 7936.43, 8617.16, 7465.75, 6391.39, 8668.63, 7448.20, 0.000, 0.000, 0.000, 17:13:18.767, 1560867198767
248, -3370.58, -3560.16, 7935.63, 8617.04, 7465.08, 6391.39, 8668.07, 7447.73, 0.000, 0.000, 0.000, 17:13:18.767, 1560867198767
249, -3370.13, -3559.54, 7936.61, 8617.85, 7466.00, 6390.94, 8669.33, 7449.08, 0.000, 0.000, 0.000, 17:13:18.767, 1560867198767
250, -3370.82, -3560.97, 7936.46, 8618.63, 7467.05, 6392.31, 8669.97, 7449.57, 0.000, 0.000, 0.000, 17:13:18.767, 1560867198767
251, -3372.01, -3560.45, 7936.12, 8617.94, 7466.26, 6391.17, 8669.06, 7448.70, 0.000, 0.000, 0.000, 17:13:18.768, 1560867198768
252, -3371.45, -3560.72, 7936.23, 8616.98, 7466.11, 6390.77, 8668.27, 7448.96, 0.000, 0.000, 0.000, 17:13:18.768, 1560867198768
253, -3370.53, -3560.12, 7935.90, 8616.24, 7465.64, 6390.61, 8667.36, 7448.03, 0.000, 0.000, 0.000, 17:13:18.768, 1560867198768
254, -3371.40, -3562.00, 7936.81, 8617.13, 7466.35, 6390.92, 8668.52, 7448.79, 0.004, 0.044, -1.028, 17:13:18.769, 1560867198769
255, -3371.94, -3559.65, 7937.75, 8618.00, 7467.40, 6391.75, 8669.91, 7449.39, 0.000, 0.000, 0.000, 17:13:18.769, 1560867198769
0, -3369.10, -3559.94, 7936.75, 8617.45, 7466.80, 6391.41, 8669.30, 7448.52, 0.000, 0.000, 0.000, 17:13:18.769, 1560867198769
1, -3370.51, -3560.19, 7936.08, 8617.00, 7466.04, 6391.21, 8668.59, 7448.36, 0.000, 0.000, 0.000, 17:13:18.781, 1560867198781
2, -3367.04, -3559.11, 7935.49, 8615.88, 7465.39, 6389.76, 8667.42, 7447.91, 0.000, 0.000, 0.000, 17:13:18.781, 1560867198781
3, -3370.42, -3559.09, 7936.17, 8616.44, 7466.73, 6390.65, 8668.68, 7448.81, 0.000, 0.000, 0.000, 17:13:18.781, 1560867198781
4, -3371.63, -3561.35, 7937.95, 8618.52, 7467.83, 6392.58, 8670.33, 7449.90, 0.000, 0.000, 0.000, 17:13:18.782, 1560867198782
5, -3371.25, -3563.72, 7937.69, 8617.69, 7467.14, 6391.86, 8669.66, 7449.41, 0.000, 0.000, 0.000, 17:13:18.782, 1560867198782
6, -3371.40, -3563.05, 7935.52, 8615.81, 7465.66, 6390.05, 8667.96, 7447.91, 0.000, 0.000, 0.000, 17:13:18.782, 1560867198782
7, -3371.25, -3563.07, 7935.43, 8615.43, 7465.17, 6390.83, 8667.94, 7447.76, 0.000, 0.000, 0.000, 17:13:18.782, 1560867198782
8, -3370.15, -3561.57, 7937.42, 8617.78, 7466.91, 6392.96, 8670.04, 7449.95, 0.002, 0.050, -1.032, 17:13:18.783, 1560867198783
9, -3371.65, -3560.23, 7937.01, 8617.49, 7466.44, 6392.33, 8669.93, 7449.14, 0.000, 0.000, 0.000, 17:13:18.783, 1560867198783
10, -3369.91, -3563.92, 7936.61, 8617.11, 7466.24, 6391.17, 8669.53, 7449.46, 0.000, 0.000, 0.000, 17:13:18.783, 1560867198783
11, -3369.46, -3561.95, 7936.12, 8616.62, 7465.82, 6390.77, 8668.86, 7449.52, 0.000, 0.000, 0.000, 17:13:18.784, 1560867198784
12, -3372.57, -3561.24, 7935.32, 8615.70, 7465.15, 6390.01, 8667.89, 7448.96, 0.000, 0.000, 0.000, 17:13:18.784, 1560867198784
13, -3371.11, -3561.62, 7936.75, 8617.07, 7466.24, 6391.68, 8668.92, 7449.23, 0.000, 0.000, 0.000, 17:13:18.784, 1560867198784
14, -3370.73, -3560.66, 7937.64, 8618.41, 7467.92, 6391.79, 8670.04, 7449.90, 0.000, 0.000, 0.000, 17:13:18.784, 1560867198784
15, -3370.24, -3559.27, 7936.52, 8617.96, 7467.43, 6391.10, 8669.41, 7449.37, 0.000, 0.000, 0.000, 17:13:18.785, 1560867198785
16, -3370.02, -3560.57, 7935.54, 8616.96, 7465.75, 6390.99, 8668.48, 7448.61, 0.000, 0.000, 0.000, 17:13:18.785, 1560867198785
17, -3371.96, -3560.16, 7935.45, 8616.22, 7465.10, 6390.10, 8667.92, 7448.09, 0.000, 0.000, 0.000, 17:13:18.785, 1560867198785
18, -3372.07, -3559.74, 7936.57, 8617.02, 7466.33, 6390.90, 8668.99, 7449.14, 0.006, 0.052, -1.040, 17:13:18.785, 1560867198785
19, -3373.19, -3559.38, 7936.34, 8617.67, 7466.82, 6391.50, 8669.44, 7449.97, 0.000, 0.000, 0.000, 17:13:18.786, 1560867198786
20, -3371.02, -3559.96, 7936.34, 8617.02, 7466.62, 6391.26, 8669.35, 7449.99, 0.000, 0.000, 0.000, 17:13:18.786, 1560867198786
21, -3369.75, -3559.31, 7935.61, 8615.73, 7464.79, 6390.63, 8668.48, 7449.03, 0.000, 0.000, 0.000, 17:13:18.786, 1560867198786
22, -3372.68, -3560.50, 7935.94, 8616.44, 7465.82, 6391.37, 8668.88, 7449.08, 0.000, 0.000, 0.000, 17:13:18.787, 1560867198787
23, -3374.64, -3560.21, 7936.59, 8616.73, 7466.40, 6391.46, 8668.97, 7448.79, 0.000, 0.000, 0.000, 17:13:18.787, 1560867198787
24, -3372.10, -3559.94, 7937.35, 8617.67, 7467.02, 6391.55, 8670.33, 7449.23, 0.000, 0.000, 0.000, 17:13:18.787, 1560867198787
25, -3370.15, -3560.83, 7937.04, 8617.63, 7467.00, 6391.35, 8670.44, 7449.46, 0.000, 0.000, 0.000, 17:13:18.787, 1560867198787
26, -3371.43, -3559.47, 7936.50, 8616.55, 7465.64, 6390.74, 8668.99, 7448.74, 0.000, 0.000, 0.000, 17:13:18.788, 1560867198788
27, -3372.27, -3559.45, 7935.83, 8616.22, 7465.15, 6390.70, 8668.34, 7448.90, 0.000, 0.000, 0.000, 17:13:18.788, 1560867198788
28, -3371.76, -3559.74, 7936.88, 8617.04, 7466.71, 6391.68, 8669.71, 7449.68, 0.006, 0.054, -1.036, 17:13:18.790, 1560867198790
29, -3371.25, -3559.58, 7937.24, 8618.12, 7467.74, 6391.64, 8670.76, 7451.07, 0.000, 0.000, 0.000, 17:13:18.790, 1560867198790
30, -3372.95, -3559.74, 7937.06, 8618.12, 7467.23, 6391.03, 8670.42, 7450.86, 0.000, 0.000, 0.000, 17:13:18.791, 1560867198791
31, -3371.13, -3560.32, 7936.90, 8617.09, 7466.13, 6390.54, 8668.99, 7449.75, 0.000, 0.000, 0.000, 17:13:18.791, 1560867198791
32, -3370.29, -3561.01, 7936.23, 8616.40, 7465.55, 6390.12, 8668.10, 7448.92, 0.000, 0.000, 0.000, 17:13:18.791, 1560867198791
33, -3371.96, -3559.54, 7936.75, 8617.31, 7466.78, 6391.57, 8669.37, 7450.04, 0.000, 0.000, 0.000, 17:13:18.791, 1560867198791
34, -3370.44, -3559.31, 7937.95, 8618.03, 7468.19, 6393.27, 8670.73, 7450.82, 0.000, 0.000, 0.000, 17:13:18.791, 1560867198791
35, -3371.69, -3560.66, 7937.22, 8617.56, 7467.07, 6391.82, 8669.91, 7449.79, 0.000, 0.000, 0.000, 17:13:18.791, 1560867198791
36, -3372.45, -3560.45, 7936.10, 8616.60, 7465.88, 6390.77, 8668.63, 7448.79, 0.000, 0.000, 0.000, 17:13:18.792, 1560867198792
37, -3372.41, -3561.15, 7935.83, 8616.22, 7466.02, 6391.75, 8668.30, 7448.81, 0.000, 0.000, 0.000, 17:13:18.792, 1560867198792
38, -3372.83, -3560.68, 7936.63, 8617.33, 7467.65, 6392.51, 8669.86, 7449.63, 0.008, 0.054, -1.036, 17:13:18.792, 1560867198792
39, -3372.95, -3559.34, 7937.57, 8618.12, 7468.08, 6392.62, 8670.93, 7449.81, 0.000, 0.000, 0.000, 17:13:18.792, 1560867198792
40, -3371.38, -3559.11, 7937.46, 8617.83, 7467.18, 6392.55, 8670.26, 7449.59, 0.000, 0.000, 0.000, 17:13:18.792, 1560867198792
41, -3371.58, -3561.28, 7936.34, 8616.58, 7465.73, 6392.17, 8668.86, 7448.85, 0.000, 0.000, 0.000, 17:13:18.792, 1560867198792
42, -3373.08, -3560.79, 7935.36, 8616.49, 7465.50, 6392.00, 8668.48, 7449.14, 0.000, 0.000, 0.000, 17:13:18.793, 1560867198793
43, -3372.52, -3560.86, 7935.27, 8616.58, 7465.97, 6391.97, 8668.99, 7449.52, 0.000, 0.000, 0.000, 17:13:18.793, 1560867198793
44, -3371.47, -3560.01, 7936.75, 8618.03, 7467.72, 6392.42, 8670.53, 7450.86, 0.000, 0.000, 0.000, 17:13:18.793, 1560867198793
45, -3371.34, -3559.87, 7936.77, 8617.87, 7467.00, 6391.86, 8670.08, 7449.84, 0.000, 0.000, 0.000, 17:13:18.793, 1560867198793
46, -3371.74, -3561.91, 7936.28, 8617.18, 7466.47, 6391.37, 8669.01, 7449.39, 0.000, 0.000, 0.000, 17:13:18.793, 1560867198793
47, -3372.41, -3561.24, 7935.36, 8615.84, 7465.50, 6391.62, 8668.16, 7448.67, 0.000, 0.000, 0.000, 17:13:18.794, 1560867198794
48, -3370.69, -3560.30, 7934.73, 8615.70, 7465.33, 6390.99, 8668.10, 7448.54, 0.004, 0.054, -1.036, 17:13:18.794, 1560867198794
49, -3370.91, -3559.56, 7936.05, 8617.00, 7466.67, 6391.06, 8669.41, 7449.52, 0.000, 0.000, 0.000, 17:13:18.795, 1560867198795
50, -3371.98, -3560.66, 7936.08, 8616.64, 7466.20, 6389.98, 8669.15, 7449.95, 0.000, 0.000, 0.000, 17:13:18.795, 1560867198795
51, -3371.98, -3558.91, 7935.16, 8615.52, 7465.28, 6389.98, 8668.23, 7449.14, 0.000, 0.000, 0.000, 17:13:18.796, 1560867198796
52, -3373.73, -3559.36, 7935.18, 8614.70, 7465.24, 6390.21, 8668.14, 7449.05, 0.000, 0.000, 0.000, 17:13:18.796, 1560867198796
53, -3373.46, -3558.98, 7936.05, 8615.75, 7466.40, 6391.53, 8669.08, 7449.32, 0.000, 0.000, 0.000, 17:13:18.796, 1560867198796
54, -3370.13, -3560.90, 7936.19, 8616.33, 7466.22, 6391.84, 8669.77, 7449.43, 0.000, 0.000, 0.000, 17:13:18.796, 1560867198796
55, -3369.88, -3560.50, 7935.67, 8616.15, 7465.24, 6391.35, 8669.24, 7449.14, 0.000, 0.000, 0.000, 17:13:18.797, 1560867198797
56, -3371.92, -3559.18, 7935.32, 8615.68, 7465.19, 6390.72, 8668.34, 7448.65, 0.000, 0.000, 0.000, 17:13:18.797, 1560867198797
57, -3371.63, -3561.42, 7935.61, 8615.14, 7465.66, 6391.68, 8668.39, 7448.81, 0.000, 0.000, 0.000, 17:13:18.798, 1560867198798
58, -3371.18, -3561.75, 7936.68, 8616.51, 7467.29, 6393.07, 8669.68, 7449.90, 0.006, 0.052, -1.038, 17:13:18.799, 1560867198799
59, -3372.03, -3561.68, 7936.97, 8617.89, 7467.74, 6393.45, 8670.64, 7451.09, 0.000, 0.000, 0.000, 17:13:18.799, 1560867198799
60, -3372.70, -3560.50, 7936.25, 8616.82, 7466.73, 6391.66, 8670.11, 7449.79, 0.000, 0.000, 0.000, 17:13:18.800, 1560867198800
61, -3372.99, -3560.34, 7935.76, 8616.46, 7465.73, 6390.54, 8668.88, 7449.01, 0.000, 0.000, 0.000, 17:13:18.801, 1560867198801
62, -3371.92, -3558.40, 7936.17, 8616.22, 7466.31, 6390.43, 8668.41, 7448.83, 0.000, 0.000, 0.000, 17:13:18.801, 1560867198801
63, -3372.92, -3560.28, 7936.59, 8616.24, 7466.67, 6392.35, 8669.62, 7449.70, 0.000, 0.000, 0.000, 17:13:18.801, 1560867198801
64, -3370.91, -3562.15, 7937.39, 8616.91, 7466.73, 6392.44, 8670.33, 7450.44, 0.000, 0.000, 0.000, 17:13:18.802, 1560867198802
65, -3369.84, -3561.53, 7937.28, 8617.45, 7466.51, 6392.42, 8670.08, 7450.51, 0.000, 0.000, 0.000, 17:13:18.802, 1560867198802
66, -3370.87, -3562.47, 7935.41, 8615.64, 7465.46, 6391.73, 8668.52, 7449.23, 0.000, 0.000, 0.000, 17:13:18.803, 1560867198803
67, -3369.01, -3561.21, 7935.20, 8615.43, 7465.44, 6391.84, 8667.87, 7448.63, 0.000, 0.000, 0.000, 17:13:18.803, 1560867198803
68, -3369.68, -3562.00, 7936.19, 8616.13, 7465.88, 6392.02, 8668.74, 7449.34, 0.002, 0.052, -1.036, 17:13:18.804, 1560867198804
69, -3370.06, -3561.21, 7937.10, 8617.07, 7466.44, 6391.46, 8670.11, 7450.15, 0.000, 0.000, 0.000, 17:13:18.804, 1560867198804
70, -3370.69, -3559.56, 7936.93, 8617.00, 7466.33, 6390.68, 8670.31, 7449.90, 0.000, 0.000, 0.000, 17:13:18.804, 1560867198804
71, -3372.79, -3559.54, 7935.74, 8615.30, 7465.39, 6389.54, 8668.88, 7448.74, 0.000, 0.000, 0.000, 17:13:18.804, 1560867198804
72, -3372.41, -3559.16, 7935.63, 8615.48, 7465.71, 6389.87, 8668.70, 7449.03, 0.000, 0.000, 0.000, 17:13:18.804, 1560867198804
73, -3372.12, -3558.20, 7936.68, 8616.17, 7466.29, 6391.06, 8669.75, 7450.24, 0.000, 0.000, 0.000, 17:13:18.804, 1560867198804
74, -3370.24, -3559.72, 7936.90, 8616.51, 7467.23, 6391.77, 8670.64, 7451.02, 0.000, 0.000, 0.000, 17:13:18.805, 1560867198805
75, -3370.67, -3562.26, 7936.79, 8617.45, 7467.81, 6392.51, 8671.00, 7450.93, 0.000, 0.000, 0.000, 17:13:18.805, 1560867198805
76, -3371.29, -3560.10, 7935.61, 8616.17, 7466.47, 6392.96, 8669.64, 7449.01, 0.000, 0.000, 0.000, 17:13:18.806, 1560867198806
77, -3371.72, -3561.21, 7934.87, 8614.72, 7465.53, 6391.48, 8668.54, 7448.27, 0.000, 0.000, 0.000, 17:13:18.806, 1560867198806
78, -3372.01, -3561.01, 7936.05, 8615.50, 7465.88, 6391.84, 8669.53, 7449.30, 0.008, 0.048, -1.036, 17:13:18.806, 1560867198806
79, -3371.56, -3559.22, 7936.79, 8616.53, 7466.62, 6392.08, 8670.44, 7449.46, 0.000, 0.000, 0.000, 17:13:18.806, 1560867198806
80, -3371.38, -3560.59, 7937.10, 8617.11, 7467.18, 6392.11, 8670.91, 7450.04, 0.000, 0.000, 0.000, 17:13:18.806, 1560867198806
81, -3372.12, -3560.86, 7935.61, 8616.44, 7466.44, 6391.62, 8669.64, 7449.41, 0.000, 0.000, 0.000, 17:13:18.807, 1560867198807
82, -3373.15, -3559.11, 7934.96, 8615.50, 7465.48, 6392.49, 8668.30, 7448.67, 0.000, 0.000, 0.000, 17:13:18.807, 1560867198807
83, -3371.05, -3560.12, 7935.52, 8616.13, 7465.68, 6392.33, 8668.88, 7449.34, 0.000, 0.000, 0.000, 17:13:18.807, 1560867198807
84, -3372.30, -3560.61, 7936.23, 8617.02, 7466.60, 6392.13, 8670.78, 7450.40, 0.000, 0.000, 0.000, 17:13:18.807, 1560867198807
85, -3371.94, -3559.83, 7936.68, 8617.02, 7466.82, 6391.64, 8670.73, 7449.66, 0.000, 0.000, 0.000, 17:13:18.807, 1560867198807
86, -3371.27, -3558.46, 7936.12, 8615.79, 7466.04, 6389.89, 8669.06, 7448.90, 0.000, 0.000, 0.000, 17:13:18.808, 1560867198808
87, -3372.41, -3559.63, 7936.28, 8615.59, 7466.02, 6390.59, 8669.19, 7449.61, 0.000, 0.000, 0.000, 17:13:18.808, 1560867198808
88, -3372.39, -3560.12, 7936.21, 8615.57, 7465.71, 6390.50, 8669.24, 7448.63, 0.002, 0.048, -1.032, 17:13:18.808, 1560867198808
89, -3372.23, -3559.54, 7936.08, 8616.51, 7466.51, 6390.77, 8669.75, 7448.81, 0.000, 0.000, 0.000, 17:13:18.808, 1560867198808
90, -3371.36, -3558.64, 7935.85, 8617.36, 7466.96, 6391.06, 8669.93, 7449.57, 0.000, 0.000, 0.000, 17:13:18.809, 1560867198809
91, -3371.56, -3558.91, 7935.16, 8616.49, 7466.76, 6391.24, 8669.19, 7449.46, 0.000, 0.000, 0.000, 17:13:18.809, 1560867198809
92, -3370.67, -3557.17, 7935.36, 8615.43, 7466.22, 6391.10, 8668.86, 7448.88, 0.000, 0.000, 0.000, 17:13:18.809, 1560867198809
93, -3372.16, -3560.14, 7935.56, 8615.03, 7466.29, 6390.68, 8668.90, 7448.43, 0.000, 0.000, 0.000, 17:13:18.809, 1560867198809
94, -3373.01, -3561.28, 7936.52, 8615.93, 7466.76, 6390.70, 8669.66, 7449.14, 0.000, 0.000, 0.000, 17:13:18.809, 1560867198809
95, -3374.91, -3560.43, 7937.31, 8616.64, 7466.69, 6391.24, 8670.31, 7450.08, 0.000, 0.000, 0.000, 17:13:18.809, 1560867198809
96, -3373.48, -3559.14, 7936.23, 8616.13, 7466.35, 6391.24, 8669.66, 7449.34, 0.000, 0.000, 0.000, 17:13:18.810, 1560867198810
97, -3370.78, -3559.83, 7935.36, 8614.50, 7465.66, 6390.21, 8668.32, 7448.74, 0.006, 0.052, -1.028, 17:13:18.810, 1560867198810
98, -3372.45, -3559.94, 7936.88, 8615.66, 7467.00, 6391.32, 8669.37, 7450.02, 0.000, 0.000, 0.000, 17:13:18.810, 1560867198810
99, -3371.96, -3559.54, 7938.18, 8617.42, 7467.92, 6391.77, 8670.82, 7450.86, 0.000, 0.000, 0.000, 17:13:18.810, 1560867198810
100, -3371.07, -3560.81, 7937.51, 8616.91, 7467.47, 6391.26, 8670.44, 7450.24, 0.000, 0.000, 0.000, 17:13:18.810, 1560867198810
101, -3370.89, -3559.98, 7936.34, 8615.52, 7466.18, 6391.12, 8668.88, 7449.14, 0.000, 0.000, 0.000, 17:13:18.811, 1560867198811
102, -3373.15, -3558.33, 7935.83, 8615.05, 7466.18, 6390.63, 8668.30, 7449.05, 0.000, 0.000, 0.000, 17:13:18.811, 1560867198811
103, -3373.30, -3560.23, 7936.12, 8615.59, 7466.87, 6390.59, 8669.37, 7449.79, 0.000, 0.000, 0.000, 17:13:18.811, 1560867198811
0, 29310.27, 29048.39, 38969.55, 43871.38, 30475.51, 29077.27, 33605.98, 31941.49, 0.002, 0.026, -0.512, 17:13:27.872, 1560867207872
1, 29237.27, 28963.81, 38878.33, 43775.69, 30388.94, 28995.04, 33513.73, 31857.00, 0.000, 0.000, 0.000, 17:13:28.357, 1560867208357
2, 29231.23, 28966.47, 38896.64, 43792.03, 30403.27, 29001.37, 33535.02, 31866.30, 0.000, 0.000, 0.000, 17:13:28.357, 1560867208357
3, 29316.23, 29074.48, 39027.95, 43927.79, 30527.63, 29114.06, 33673.71, 31985.52, 0.000, 0.000, 0.000, 17:13:28.358, 1560867208358
4, 29376.03, 29139.46, 39097.51, 44004.59, 30595.22, 29179.11, 33751.04, 32055.75, 0.000, 0.000, 0.000, 17:13:28.358, 1560867208358
5, 29364.25, 29110.64, 39059.98, 43964.96, 30556.64, 29139.63, 33705.60, 32018.09, 0.000, 0.000, 0.000, 17:13:28.358, 1560867208358
6, 29339.28, 29076.29, 39022.59, 43925.63, 30519.65, 29100.96, 33663.00, 31982.33, 0.000, 0.000, 0.000, 17:13:28.359, 1560867208359
7, 29378.33, 29136.57, 39093.29, 44004.01, 30588.43, 29164.44, 33738.79, 32043.59, 0.000, 0.034, -0.770, 17:13:28.359, 1560867208359
8, 29484.79, 29266.99, 39246.15, 44162.82, 30735.77, 29303.67, 33899.57, 32183.81, 0.000, 0.000, 0.000, 17:13:28.359, 1560867208359
9, 29555.69, 29336.06, 39322.28, 44238.77, 30807.54, 29370.50, 33972.97, 32252.90, 0.000, 0.000, 0.000, 17:13:28.359, 1560867208359
10, 29557.10, 29318.02, 39294.95, 44207.82, 30778.75, 29340.62, 33931.87, 32224.75, 0.000, 0.000, 0.000, 17:13:28.360, 1560867208360
11, 29535.35, 29292.27, 39259.68, 44167.96, 30743.91, 29313.15, 33888.98, 32194.24, 0.000, 0.000, 0.000, 17:13:28.360, 1560867208360
12, 29556.22, 29339.99, 39307.80, 44218.63, 30789.37, 29359.26, 33941.68, 32242.26, 0.000, 0.000, 0.000, 17:13:28.360, 1560867208360
13, 29658.35, 29460.58, 39449.89, 44360.84, 30926.97, 29484.99, 34090.45, 32371.05, 0.000, 0.000, 0.000, 17:13:28.360, 1560867208360
14, 29719.08, 29515.23, 39509.75, 44421.63, 30982.89, 29547.96, 34149.98, 32425.81, 0.000, 0.000, 0.000, 17:13:28.360, 1560867208360
15, 29708.22, 29478.66, 39460.64, 44372.26, 30934.25, 29511.63, 34092.24, 32383.85, 0.000, 0.000, 0.000, 17:13:28.361, 1560867208361
16, 29662.11, 29424.53, 39394.84, 44300.69, 30873.37, 29458.53, 34024.32, 32328.18, 0.000, 0.000, 0.000, 17:13:28.361, 1560867208361
17, 29660.61, 29441.96, 39415.24, 44325.65, 30896.61, 29483.69, 34054.51, 32351.76, 0.002, 0.046, -0.906, 17:13:28.361, 1560867208361
18, 29738.88, 29536.18, 39526.64, 44439.20, 31005.29, 29585.28, 34175.13, 32453.23, 0.000, 0.000, 0.000, 17:13:28.361, 1560867208361
19, 29784.84, 29578.02, 39573.83, 44490.23, 31049.90, 29630.99, 34220.36, 32491.05, 0.000, 0.000, 0.000, 17:13:28.361, 1560867208361
20, 29737.88, 29515.84, 39498.04, 44414.59, 30978.24, 29561.50, 34137.97, 32424.71, 0.000, 0.000, 0.000, 17:13:28.362, 1560867208362
21, 29669.08, 29437.78, 39414.19, 44323.93, 30895.72, 29480.70, 34045.19, 32341.90, 0.000, 0.000, 0.000, 17:13:28.362, 1560867208362
22, 29680.05, 29461.65, 39447.34, 44355.47, 30926.74, 29504.99, 34079.88, 32366.13, 0.000, 0.000, 0.000, 17:13:28.362, 1560867208362
23, 29751.40, 29548.18, 39554.47, 44464.26, 31029.29, 29596.23, 34195.06, 32462.51, 0.000, 0.000, 0.000, 17:13:28.362, 1560867208362
24, 29791.14, 29588.25, 39598.08, 44514.19, 31069.68, 29631.17, 34236.34, 32501.25, 0.000, 0.000, 0.000, 17:13:28.362, 1560867208362
25, 29749.32, 29526.36, 39525.62, 44435.58, 30999.01, 29560.74, 34153.73, 32432.27, 0.000, 0.000, 0.000, 17:13:28.362, 1560867208362
26, 29672.86, 29438.68, 39429.77, 44331.04, 30904.73, 29471.51, 34050.63, 32336.74, 0.008, 0.050, -0.960, 17:13:28.363, 1560867208363
27, 29666.89, 29440.87, 39445.66, 44342.66, 30918.92, 29484.07, 34070.90, 32349.59, 0.000, 0.000, 0.000, 17:13:28.363, 1560867208363
28, 29714.10, 29509.35, 39532.12, 44434.68, 31001.40, 29564.83, 34166.56, 32428.54, 0.000, 0.000, 0.000, 17:13:28.363, 1560867208363
29, 29752.92, 29546.50, 39575.62, 44480.51, 31040.22, 29605.76, 34210.91, 32472.26, 0.000, 0.000, 0.000, 17:13:28.363, 1560867208363
30, 29708.80, 29481.03, 39499.06, 44398.65, 30965.01, 29534.46, 34125.64, 32403.21, 0.000, 0.000, 0.000, 17:13:28.363, 1560867208363
31, 29639.17, 29402.38, 39410.89, 44307.44, 30879.63, 29457.21, 34030.91, 32321.58, 0.000, 0.000, 0.000, 17:13:28.363, 1560867208363
32, 29632.29, 29412.88, 39430.80, 44327.11, 30898.25, 29472.61, 34050.89, 32336.51, 0.000, 0.000, 0.000, 17:13:28.364, 1560867208364
33, 29677.75, 29482.02, 39511.40, 44414.03, 30977.30, 29546.14, 34143.83, 32417.56, 0.000, 0.000, 0.000, 17:13:28.364, 1560867208364
34, 29712.78, 29516.77, 39548.80, 44457.02, 31014.16, 29584.95, 34183.93, 32458.04, 0.000, 0.000, 0.000, 17:13:28.364, 1560867208364
35, 29666.13, 29449.79, 39471.68, 44378.79, 30940.98, 29513.89, 34098.43, 32386.80, 0.000, 0.000, 0.000, 17:13:28.364, 1560867208364
36, 29587.52, 29359.69, 39370.50, 44276.70, 30843.37, 29426.47, 33993.58, 32297.42, 0.012, 0.044, -0.998, 17:13:28.364, 1560867208364
37, 29580.03, 29362.01, 39379.28, 44286.61, 30854.30, 29433.47, 34006.75, 32307.41, 0.000, 0.000, 0.000, 17:13:28.365, 1560867208365
38, 29630.10, 29430.16, 39464.84, 44374.05, 30939.57, 29506.29, 34101.30, 32386.36, 0.000, 0.000, 0.000, 17:13:28.365, 1560867208365
39, 29665.21, 29460.98, 39503.71, 44413.56, 30978.38, 29537.58, 34141.68, 32423.08, 0.000, 0.000, 0.000, 17:13:28.365, 1560867208365
40, 29621.87, 29394.51, 39427.49, 44336.74, 30908.66, 29470.33, 34060.46, 32356.05, 0.000, 0.000, 0.000, 17:13:28.365, 1560867208365
41, 29540.91, 29299.02, 39325.97, 44231.39, 30810.52, 29374.24, 33950.36, 32260.70, 0.000, 0.000, 0.000, 17:13:28.366, 1560867208366
42, 29530.88, 29302.00, 39343.50, 44240.61, 30827.19, 29383.27, 33968.93, 32272.63, 0.000, 0.000, 0.000, 17:13:28.367, 1560867208367
43, 29583.67, 29372.85, 39435.36, 44331.31, 30915.77, 29457.61, 34065.27, 32352.49, 0.000, 0.000, 0.000, 17:13:28.367, 1560867208367
44, 29624.87, 29409.53, 39479.97, 44376.75, 30959.54, 29493.17, 34109.48, 32394.47, 0.000, 0.000, 0.000, 17:13:28.368, 1560867208368
45, 29582.60, 29342.21, 39405.63, 44306.61, 30887.25, 29427.23, 34030.71, 32329.54, 0.000, 0.000, 0.000, 17:13:28.368, 1560867208368
46, 29513.04, 29262.37, 39315.84, 44216.75, 30801.62, 29342.61, 33936.59, 32247.64, 0.008, 0.046, -1.018, 17:13:28.368, 1560867208368
47, 29518.05, 29274.12, 39339.79, 44233.54, 30823.95, 29361.32, 33968.59, 32276.28, 0.000, 0.000, 0.000, 17:13:28.368, 1560867208368
48, 29588.90, 29362.23, 39447.72, 44342.28, 30927.15, 29454.99, 34084.09, 32374.02, 0.000, 0.000, 0.000, 17:13:28.369, 1560867208369
49, 29645.61, 29416.82, 39510.98, 44408.96, 30989.57, 29511.70, 34145.91, 32433.23, 0.000, 0.000, 0.000, 17:13:28.370, 1560867208370
50, 29612.75, 29359.62, 39442.33, 44335.78, 30924.33, 29445.38, 34068.28, 32369.08, 0.000, 0.000, 0.000, 17:13:28.370, 1560867208370
51, 29544.36, 29281.21, 39351.27, 44239.91, 30834.52, 29360.83, 33968.86, 32279.76, 0.000, 0.000, 0.000, 17:13:28.370, 1560867208370
52, 29535.79, 29286.24, 39362.52, 44248.14, 30845.56, 29365.99, 33980.75, 32283.81, 0.000, 0.000, 0.000, 17:13:28.370, 1560867208370
53, 29595.74, 29370.33, 39462.45, 44353.19, 30947.35, 29455.37, 34092.00, 32376.23, 0.000, 0.000, 0.000, 17:13:28.370, 1560867208370
54, 29663.29, 29434.41, 39530.60, 44425.83, 31015.46, 29517.62, 34161.09, 32443.29, 0.000, 0.000, 0.000, 17:13:28.371, 1560867208371
55, 29625.63, 29371.53, 39454.14, 44352.95, 30943.71, 29451.42, 34081.27, 32379.52, 0.000, 0.000, 0.000, 17:13:28.371, 1560867208371
56, 29568.38, 29298.93, 39372.98, 44271.79, 30865.81, 29380.65, 33994.57, 32304.64, 0.010, 0.046, -1.024, 17:13:28.371, 1560867208371
57, 29553.72, 29296.50, 39381.56, 44275.32, 30872.74, 29381.01, 34003.13, 32304.06, 0.000, 0.000, 0.000, 17:13:28.371, 1560867208371
58, 29618.59, 29384.68, 39487.55, 44382.56, 30974.44, 29472.79, 34118.55, 32399.30, 0.000, 0.000, 0.000, 17:13:28.371, 1560867208371
59, 29660.70, 29431.30, 39534.89, 44430.75, 31017.34, 29512.75, 34167.90, 32442.97, 0.000, 0.000, 0.000, 17:13:28.371, 1560867208371
60, 29623.30, 29375.71, 39465.96, 44357.41, 30949.03, 29449.18, 34092.85, 32382.60, 0.000, 0.000, 0.000, 17:13:28.372, 1560867208372
61, 29550.14, 29288.03, 39371.52, 44262.40, 30858.33, 29368.40, 33995.46, 32300.44, 0.000, 0.000, 0.000, 17:13:28.372, 1560867208372
62, 29550.90, 29303.76, 39394.16, 44288.10, 30880.19, 29390.60, 34020.56, 32318.61, 0.000, 0.000, 0.000, 17:13:28.372, 1560867208372
63, 29609.15, 29379.13, 39492.80, 44387.01, 30973.01, 29469.75, 34125.82, 32405.42, 0.000, 0.000, 0.000, 17:13:28.372, 1560867208372
64, 29662.35, 29427.14, 39552.73, 44445.17, 31029.12, 29530.52, 34186.72, 32462.29, 0.000, 0.000, 0.000, 17:13:28.372, 1560867208372
65, 29644.74, 29393.57, 39503.22, 44398.09, 30981.33, 29484.70, 34130.71, 32417.92, 0.000, 0.000, 0.000, 17:13:28.373, 1560867208373
66, 29585.33, 29325.78, 39423.87, 44319.89, 30907.32, 29413.80, 34052.68, 32352.76, 0.012, 0.046, -1.030, 17:13:28.373, 1560867208373
67, 29559.38, 29318.47, 39429.82, 44324.89, 30912.48, 29416.30, 34063.52, 32356.32, 0.000, 0.000, 0.000, 17:13:28.373, 1560867208373
68, 29603.30, 29385.30, 39517.91, 44406.57, 31000.33, 29495.81, 34164.48, 32436.76, 0.000, 0.000, 0.000, 17:13:28.373, 1560867208373
69, 29642.97, 29424.71, 39565.80, 44465.13, 31049.88, 29542.93, 34221.50, 32490.09, 0.000, 0.000, 0.000, 17:13:28.373, 1560867208373
70, 29611.97, 29359.42, 39508.41, 44403.44, 30992.28, 29490.98, 34156.91, 32438.44, 0.000, 0.000, 0.000, 17:13:28.373, 1560867208373
71, 29556.47, 29287.89, 39439.25, 44331.73, 30928.24, 29431.50, 34087.64, 32376.95, 0.000, 0.000, 0.000, 17:13:28.374, 1560867208374
72, 29528.66, 29273.19, 39450.87, 44344.05, 30944.07, 29447.04, 34111.40, 32391.45, 0.000, 0.000, 0.000, 17:13:28.374, 1560867208374
73, 29587.29, 29360.76, 39564.40, 44472.71, 31057.86, 29557.90, 34240.05, 32503.19, 0.000, 0.000, 0.000, 17:13:28.374, 1560867208374
74, 29630.81, 29409.37, 39631.45, 44538.42, 31126.39, 29626.37, 34318.00, 32579.83, 0.000, 0.000, 0.000, 17:13:28.374, 1560867208374
75, 29597.20, 29339.03, 39582.28, 44477.09, 31080.99, 29585.91, 34260.13, 32533.03, 0.000, 0.000, 0.000, 17:13:28.374, 1560867208374
76, 29536.80, 29262.99, 39511.58, 44404.80, 31014.90, 29534.83, 34188.89, 32475.92, 0.010, 0.046, -1.024, 17:13:28.374, 1560867208374
77, 29505.26, 29249.34, 39515.38, 44406.05, 31022.77, 29547.46, 34203.87, 32491.66, 0.000, 0.000, 0.000, 17:13:28.374, 1560867208374
78, 29553.23, 29308.30, 39608.50, 44497.32, 31113.74, 29632.47, 34306.33, 32578.67, 0.000, 0.000, 0.000, 17:13:28.375, 1560867208375
79, 29589.37, 29336.84, 39655.93, 44544.25, 31160.50, 29677.91, 34357.94, 32624.78, 0.000, 0.000, 0.000, 17:13:28.375, 1560867208375
80, 29569.77, 29297.64, 39613.46, 44504.76, 31121.07, 29646.55, 34311.85, 32590.54, 0.000, 0.000, 0.000, 17:13:28.375, 1560867208375
81, 29496.01, 29216.63, 39525.13, 44419.02, 31036.87, 29573.68, 34220.03, 32509.67, 0.000, 0.000, 0.000, 17:13:28.375, 1560867208375
82, 29467.78, 29200.59, 39520.25, 44413.05, 31033.00, 29573.73, 34219.58, 32507.88, 0.000, 0.000, 0.000, 17:13:28.375, 1560867208375
83, 29531.48, 29285.68, 39629.48, 44524.14, 31140.92, 29683.14, 34339.01, 32616.83, 0.000, 0.000, 0.000, 17:13:28.375, 1560867208375
84, 29575.22, 29330.61, 39679.84, 44583.75, 31192.04, 29737.18, 34392.67, 32671.34, 0.000, 0.000, 0.000, 17:13:28.375, 1560867208375
85, 29521.54, 29256.69, 39600.25, 44507.21, 31118.28, 29673.97, 34314.82, 32611.48, 0.000, 0.000, 0.000, 17:13:28.376, 1560867208376
86, 29464.31, 29177.92, 39524.23, 44428.47, 31050.17, 29615.77, 34246.40, 32558.62, 0.008, 0.048, -1.026, 17:13:28.376, 1560867208376
87, 29474.30, 29193.77, 39550.65, 44452.57, 31077.28, 29645.16, 34274.54, 32582.85, 0.000, 0.000, 0.000, 17:13:28.376, 1560867208376
88, 29530.54, 29268.49, 39637.29, 44541.37, 31159.92, 29724.73, 34366.95, 32662.56, 0.000, 0.000, 0.000, 17:13:28.376, 1560867208376
89, 29582.55, 29324.95, 39691.78, 44601.94, 31211.82, 29782.71, 34423.72, 32716.34, 0.000, 0.000, 0.000, 17:13:28.376, 1560867208376
90, 29554.59, 29276.92, 39632.86, 44548.01, 31154.11, 29730.50, 34359.08, 32659.99, 0.000, 0.000, 0.000, 17:13:28.377, 1560867208377
91, 29492.90, 29207.45, 39554.00, 44466.67, 31078.94, 29654.68, 34273.89, 32585.45, 0.000, 0.000, 0.000, 17:13:28.377, 1560867208377
92, 29491.96, 29220.66, 39573.72, 44481.87, 31097.18, 29673.71, 34292.76, 32598.81, 0.000, 0.000, 0.000, 17:13:28.377, 1560867208377
93, 29538.86, 29286.91, 39655.93, 44563.70, 31173.60, 29747.67, 34384.89, 32678.27, 0.000, 0.000, 0.000, 17:13:28.378, 1560867208378
94, 29581.39, 29325.94, 39702.48, 44609.63, 31218.48, 29786.31, 34431.43, 32725.03, 0.000, 0.000, 0.000, 17:13:28.378, 1560867208378
95, 29550.82, 29271.04, 39643.90, 44553.24, 31160.07, 29730.68, 34357.67, 32664.01, 0.000, 0.000, 0.000, 17:13:28.378, 1560867208378
96, 29501.04, 29209.55, 39570.92, 44478.72, 31086.54, 29663.67, 34273.25, 32587.59, 0.004, 0.052, -1.030, 17:13:28.378, 1560867208378
97, 29502.36, 29227.88, 39586.52, 44487.03, 31102.52, 29685.33, 34292.58, 32600.51, 0.000, 0.000, 0.000, 17:13:28.378, 1560867208378
98, 29549.77, 29293.59, 39670.05, 44570.41, 31179.54, 29757.17, 34378.48, 32670.18, 0.000, 0.000, 0.000, 17:13:28.378, 1560867208378
99, 29598.96, 29346.32, 39732.37, 44627.36, 31233.52, 29801.42, 34433.66, 32717.37, 0.000, 0.000, 0.000, 17:13:28.378, 1560867208378
100, 29571.11, 29300.81, 39661.63, 44565.42, 31167.25, 29736.09, 34359.21, 32655.14, 0.000, 0.000, 0.000, 17:13:28.378, 1560867208378
101, 29509.60, 29227.05, 39578.10, 44479.63, 31083.43, 29662.46, 34269.58, 32575.28, 0.000, 0.000, 0.000, 17:13:28.379, 1560867208379
102, 29483.43, 29204.88, 39562.72, 44455.50, 31064.65, 29642.32, 34254.96, 32558.58, 0.000, 0.000, 0.000, 17:13:28.379, 1560867208379
103, 29536.00, 29274.53, 39639.88, 44530.84, 31139.24, 29703.50, 34339.36, 32630.77, 0.000, 0.000, 0.000, 17:13:28.379, 1560867208379
104, 29574.29, 29317.20, 39680.92, 44573.54, 31179.90, 29730.46, 34384.83, 32675.37, 0.000, 0.000, 0.000, 17:13:28.379, 1560867208379
105, 29537.72, 29265.09, 39620.16, 44508.22, 31119.28, 29668.90, 34318.20, 32620.92, 0.000, 0.000, 0.000, 17:13:28.379, 1560867208379
106, 29486.35, 29200.03, 39543.54, 44427.42, 31040.96, 29598.63, 34229.66, 32543.85, 0.002, 0.052, -1.030, 17:13:28.380, 1560867208380
107, 29472.16, 29190.30, 39535.77, 44417.43, 31032.47, 29586.42, 34218.04, 32529.63, 0.000, 0.000, 0.000, 17:13:28.380, 1560867208380
108, 29514.16, 29243.61, 39601.99, 44488.26, 31094.70, 29641.07, 34283.84, 32585.22, 0.000, 0.000, 0.000, 17:13:28.381, 1560867208381
109, 29551.53, 29279.98, 39640.93, 44528.47, 31131.58, 29674.24, 34321.06, 32624.65, 0.000, 0.000, 0.000, 17:13:28.381, 1560867208381
110, 29531.64, 29242.63, 39592.45, 44478.50, 31083.81, 29629.81, 34261.18, 32576.84, 0.000, 0.000, 0.000, 17:13:28.381, 1560867208381
111, 29464.11, 29160.64, 39501.14, 44382.47, 30993.08, 29538.95, 34157.73, 32483.77, 0.000, 0.000, 0.000, 17:13:28.382, 1560867208382
112, 29452.63, 29153.33, 39498.64, 44379.52, 30991.16, 29536.24, 34154.87, 32477.55, 0.000, 0.000, 0.000, 17:13:28.382, 1560867208382
113, 29490.87, 29208.37, 39561.20, 44444.05, 31048.43, 29589.22, 34219.98, 32529.74, 0.000, 0.000, 0.000, 17:13:28.382, 1560867208382
114, 29517.27, 29234.92, 39590.53, 44472.08, 31075.21, 29607.39, 34246.54, 32551.74, 0.000, 0.000, 0.000, 17:13:28.382, 1560867208382
115, 29514.87, 29215.72, 39567.91, 44446.73, 31056.05, 29583.85, 34218.51, 32531.94, 0.000, 0.000, 0.000, 17:13:28.382, 1560867208382
116, 29460.22, 29153.92, 39496.47, 44371.39, 30982.82, 29515.19, 34139.11, 32465.19, 0.008, 0.050, -1.028, 17:13:28.382, 1560867208382
117, 29435.59, 29139.72, 39484.02, 44356.88, 30967.63, 29499.96, 34126.60, 32450.84, 0.000, 0.000, 0.000, 17:13:28.382, 1560867208382
118, 29463.87, 29185.48, 39541.20, 44414.50, 31019.15, 29548.20, 34191.08, 32504.93, 0.000, 0.000, 0.000, 17:13:28.383, 1560867208383
119, 29504.97, 29232.79, 39588.09, 44464.37, 31063.04, 29590.78, 34245.24, 32556.48, 0.000, 0.000, 0.000, 17:13:28.384, 1560867208384
120, 29502.27, 29220.61, 39558.72, 44438.62, 31035.87, 29568.85, 34214.21, 32537.75, 0.000, 0.000, 0.000, 17:13:28.384, 1560867208384
121, 29469.05, 29181.70, 39502.48, 44381.82, 30985.39, 29518.96, 34163.93, 32497.87, 0.000, 0.000, 0.000, 17:13:28.835, 1560867208835
122, 29449.72, 29175.62, 39491.26, 44367.88, 30974.17, 29506.38, 34160.93, 32493.40, 0.000, 0.000, 0.000, 17:13:28.835, 1560867208835
123, 29490.58, 29225.08, 39557.98, 44430.37, 31036.96, 29562.19, 34235.70, 32554.49, 0.000, 0.000, 0.000, 17:13:28.836, 1560867208836
124, 29530.86, 29261.18, 39601.21, 44479.84, 31077.53, 29603.14, 34284.31, 32595.79, 0.000, 0.000, 0.000, 17:13:28.836, 1560867208836
125, 29528.58, 29244.53, 39573.27, 44453.95, 31050.26, 29582.13, 34253.69, 32574.96, 0.000, 0.000, 0.000, 17:13:28.836, 1560867208836
126, 29490.85, 29198.42, 39519.27, 44397.65, 30999.34, 29534.19, 34196.52, 32523.82, 0.004, 0.050, -1.030, 17:13:28.837, 1560867208837
127, 29485.28, 29201.28, 39520.92, 44400.38, 30999.30, 29536.96, 34195.78, 32517.12, 0.000, 0.000, 0.000, 17:13:28.837, 1560867208837
128, 29541.96, 29261.88, 39597.75, 44478.47, 31072.28, 29607.68, 34267.97, 32578.98, 0.000, 0.000, 0.000, 17:13:28.837, 1560867208837
129, 29576.59, 29302.87, 39640.97, 44524.98, 31116.00, 29647.22, 34309.10, 32620.31, 0.000, 0.000, 0.000, 17:13:28.837, 1560867208837
130, 29568.14, 29285.86, 39609.59, 44498.34, 31085.71, 29622.56, 34267.10, 32595.39, 0.000, 0.000, 0.000, 17:13:28.838, 1560867208838
131, 29529.13, 29234.58, 39549.31, 44436.03, 31026.19, 29568.92, 34192.73, 32532.49, 0.000, 0.000, 0.000, 17:13:28.838, 1560867208838
132, 29519.30, 29225.13, 39547.43, 44428.61, 31021.58, 29562.15, 34178.48, 32516.45, 0.000, 0.000, 0.000, 17:13:28.838, 1560867208838
133, 29554.08, 29268.60, 39607.31, 44489.34, 31076.72, 29612.78, 34235.70, 32567.65, 0.000, 0.000, 0.000, 17:13:28.838, 1560867208838
134, 29598.71, 29318.96, 39660.58, 44549.55, 31124.58, 29659.89, 34285.38, 32617.52, 0.000, 0.000, 0.000, 17:13:28.838, 1560867208838
135, 29593.20, 29299.22, 39638.11, 44521.90, 31098.56, 29634.86, 34248.26, 32590.29, 0.000, 0.052, -1.032, 17:13:28.838, 1560867208838
136, 29547.28, 29237.11, 39571.73, 44448.07, 31029.90, 29571.11, 34169.63, 32522.32, 0.000, 0.000, 0.000, 17:13:28.838, 1560867208838
137, 29522.36, 29214.29, 39552.64, 44426.01, 31010.76, 29551.71, 34153.02, 32504.44, 0.000, 0.000, 0.000, 17:13:28.839, 1560867208839
138, 29569.21, 29273.72, 39622.73, 44500.09, 31078.67, 29615.79, 34230.11, 32572.10, 0.000, 0.000, 0.000, 17:13:28.839, 1560867208839
139, 29593.55, 29297.50, 39654.79, 44530.95, 31109.22, 29641.97, 34266.14, 32603.75, 0.000, 0.000, 0.000, 17:13:28.839, 1560867208839
140, 29552.13, 29243.03, 39593.30, 44467.92, 31048.40, 29584.75, 34200.80, 32547.54, 0.000, 0.000, 0.000, 17:13:28.839, 1560867208839
141, 29491.27, 29171.02, 39507.96, 44381.49, 30965.19, 29510.36, 34116.90, 32479.81, 0.000, 0.000, 0.000, 17:13:28.839, 1560867208839
142, 29470.42, 29156.55, 39493.43, 44367.16, 30951.42, 29492.39, 34104.76, 32463.40, 0.000, 0.000, 0.000, 17:13:28.840, 1560867208840
143, 29484.36, 29187.73, 39536.39, 44410.99, 30991.45, 29528.93, 34152.82, 32499.81, 0.000, 0.000, 0.000, 17:13:28.840, 1560867208840
144, 29511.34, 29213.44, 39569.61, 44445.64, 31020.17, 29554.17, 34185.85, 32526.91, 0.000, 0.000, 0.000, 17:13:28.840, 1560867208840
145, 29488.68, 29173.61, 39520.92, 44402.21, 30974.31, 29512.13, 34134.15, 32485.38, 0.000, 0.054, -1.042, 17:13:28.840, 1560867208840
146, 29428.02, 29102.48, 39435.50, 44320.00, 30891.81, 29439.50, 34043.85, 32408.13, 0.000, 0.000, 0.000, 17:13:28.841, 1560867208841
147, 29390.29, 29069.02, 39402.32, 44285.20, 30858.33, 29407.99, 34006.95, 32370.42, 0.000, 0.000, 0.000, 17:13:28.841, 1560867208841
148, 29410.20, 29103.74, 39454.25, 44332.52, 30906.02, 29451.44, 34058.38, 32408.49, 0.000, 0.000, 0.000, 17:13:28.841, 1560867208841
149, 29424.21, 29122.36, 39474.48, 44354.29, 30923.66, 29466.28, 34072.73, 32415.33, 0.000, 0.000, 0.000, 17:13:28.841, 1560867208841
150, 29390.38, 29072.22, 39416.38, 44290.92, 30865.61, 29406.11, 34001.34, 32349.19, 0.000, 0.000, 0.000, 17:13:28.841, 1560867208841
151, 29320.57, 28987.57, 39320.50, 44195.32, 30772.38, 29314.89, 33891.30, 32246.12, 0.000, 0.000, 0.000, 17:13:28.841, 1560867208841
152, 29285.66, 28957.71, 39288.33, 44166.71, 30741.40, 29285.41, 33851.20, 32204.17, 0.000, 0.000, 0.000, 17:13:28.841, 1560867208841
153, 29298.87, 28983.66, 39327.40, 44204.44, 30781.21, 29316.50, 33894.77, 32237.00, 0.000, 0.000, 0.000, 17:13:28.841, 1560867208841
154, 29309.28, 28997.28, 39345.13, 44224.20, 30796.66, 29329.36, 33912.54, 32250.64, 0.000, 0.000, 0.000, 17:13:28.842, 1560867208842
155, 29271.38, 28947.32, 39280.42, 44161.88, 30736.82, 29272.83, 33844.14, 32196.37, 0.002, 0.058, -1.042, 17:13:28.842, 1560867208842
156, 29190.64, 28850.16, 39172.77, 44049.43, 30630.00, 29173.56, 33722.93, 32090.35, 0.000, 0.000, 0.000, 17:13:28.842, 1560867208842
157, 29135.59, 28795.48, 39123.89, 43998.00, 30579.62, 29127.03, 33669.06, 32033.02, 0.000, 0.000, 0.000, 17:13:28.843, 1560867208843
158, 29147.28, 28820.25, 39166.87, 44036.91, 30620.10, 29160.24, 33717.36, 32069.32, 0.000, 0.000, 0.000, 17:13:28.843, 1560867208843
159, 29173.88, 28848.88, 39202.72, 44076.25, 30657.79, 29190.97, 33757.26, 32109.31, 0.000, 0.000, 0.000, 17:13:28.843, 1560867208843
160, 29133.08, 28791.21, 39133.07, 44004.23, 30590.46, 29124.88, 33681.73, 32045.00, 0.000, 0.000, 0.000, 17:13:28.843, 1560867208843
161, 29037.33, 28680.64, 39011.75, 43874.93, 30470.48, 29011.60, 33555.13, 31935.46, 0.000, 0.000, 0.000, 17:13:28.843, 1560867208843
162, 28987.66, 28637.30, 38971.29, 43835.19, 30430.54, 28972.29, 33514.59, 31892.74, 0.000, 0.000, 0.000, 17:13:28.844, 1560867208844
163, 29036.70, 28707.89, 39055.63, 43923.48, 30513.91, 29037.06, 33612.71, 31975.44, 0.000, 0.000, 0.000, 17:13:28.844, 1560867208844
164, 29062.94, 28739.18, 39094.45, 43964.45, 30549.80, 29072.13, 33658.35, 32013.04, 0.000, 0.000, 0.000, 17:13:28.844, 1560867208844
165, 29031.83, 28695.82, 39040.61, 43909.84, 30497.86, 29029.86, 33602.11, 31967.73, 0.006, 0.056, -1.036, 17:13:28.844, 1560867208844
166, 28957.85, 28609.29, 38943.24, 43810.00, 30402.98, 28941.91, 33501.15, 31878.01, 0.000, 0.000, 0.000, 17:13:28.844, 1560867208844
167, 28951.43, 28609.76, 38953.25, 43816.10, 30411.56, 28953.89, 33513.47, 31881.37, 0.000, 0.000, 0.000, 17:13:28.844, 1560867208844
168, 29025.10, 28704.02, 39069.30, 43933.83, 30520.48, 29057.02, 33637.07, 31988.12, 0.000, 0.000, 0.000, 17:13:28.845, 1560867208845
169, 29088.51, 28774.38, 39149.21, 44017.31, 30595.94, 29130.00, 33720.71, 32062.82, 0.000, 0.000, 0.000, 17:13:28.845, 1560867208845
170, 29080.87, 28747.87, 39110.84, 43981.82, 30556.78, 29099.45, 33676.95, 32029.11, 0.000, 0.000, 0.000, 17:13:28.845, 1560867208845
171, 29033.91, 28682.83, 39032.89, 43899.38, 30479.49, 29029.42, 33590.45, 31955.08, 0.000, 0.000, 0.000, 17:13:28.845, 1560867208845
172, 29016.50, 28664.81, 39034.32, 43892.41, 30480.02, 29028.12, 33593.64, 31952.11, 0.000, 0.000, 0.000, 17:13:28.845, 1560867208845
173, 29091.78, 28752.93, 39157.77, 44015.28, 30600.43, 29141.04, 33728.76, 32069.48, 0.000, 0.000, 0.000, 17:13:28.845, 1560867208845
174, 29172.20, 28835.83, 39251.32, 44111.28, 30689.41, 29225.55, 33824.07, 32158.04, 0.000, 0.000, 0.000, 17:13:28.846, 1560867208846
175, 29181.61, 28826.93, 39228.83, 44090.36, 30669.90, 29207.94, 33796.82, 32143.06, 0.008, 0.052, -1.034, 17:13:28.846, 1560867208846
176, 29122.18, 28751.63, 39138.75, 44001.71, 30586.19, 29131.12, 33703.28, 32064.83, 0.000, 0.000, 0.000, 17:13:28.846, 1560867208846
177, 29110.08, 28751.00, 39135.78, 44000.12, 30584.65, 29129.98, 33701.82, 32063.78, 0.000, 0.000, 0.000, 17:13:28.847, 1560867208847
178, 29181.65, 28842.47, 39245.91, 44111.59, 30690.80, 29228.12, 33817.83, 32159.49, 0.000, 0.000, 0.000, 17:13:28.847, 1560867208847
179, 29231.10, 28898.88, 39308.47, 44179.32, 30750.41, 29289.23, 33886.32, 32224.38, 0.000, 0.000, 0.000, 17:13:28.847, 1560867208847
180, 29213.15, 28864.13, 39263.03, 44128.69, 30704.88, 29247.01, 33834.57, 32189.44, 0.000, 0.000, 0.000, 17:13:28.847, 1560867208847
181, 29137.38, 28772.15, 39158.40, 44018.59, 30604.54, 29151.86, 33724.02, 32092.77, 0.000, 0.000, 0.000, 17:13:28.847, 1560867208847
182, 29108.74, 28750.53, 39139.60, 43999.99, 30590.13, 29138.25, 33711.46, 32078.69, 0.000, 0.000, 0.000, 17:13:28.847, 1560867208847
183, 29149.67, 28808.00, 39217.92, 44078.78, 30664.49, 29205.86, 33797.69, 32147.44, 0.000, 0.000, 0.000, 17:13:28.847, 1560867208847
184, 29212.28, 28871.52, 39291.71, 44154.66, 30734.38, 29271.08, 33870.47, 32212.53, 0.000, 0.000, 0.000, 17:13:28.847, 1560867208847
185, 29185.86, 28825.52, 39232.47, 44098.45, 30678.75, 29218.49, 33807.93, 32162.35, 0.008, 0.048, -1.034, 17:13:28.848, 1560867208848
186, 29107.56, 28728.61, 39124.92, 43987.43, 30575.04, 29121.84, 33696.98, 32067.26, 0.000, 0.000, 0.000, 17:13:28.848, 1560867208848
187, 29062.59, 28688.20, 39093.04, 43954.75, 30541.69, 29092.16, 33660.70, 32030.59, 0.000, 0.000, 0.000, 17:13:28.848, 1560867208848
188, 29093.50, 28739.65, 39167.43, 44029.34, 30613.71, 29154.85, 33737.54, 32087.31, 0.000, 0.000, 0.000, 17:13:28.848, 1560867208848
189, 29152.66, 28801.74, 39240.74, 44100.66, 30682.26, 29219.00, 33811.68, 32154.55, 0.000, 0.000, 0.000, 17:13:28.848, 1560867208848
190, 29142.79, 28773.80, 39200.49, 44059.36, 30641.20, 29183.29, 33759.43, 32113.62, 0.000, 0.000, 0.000, 17:13:28.848, 1560867208848
191, 29041.42, 28656.25, 39072.59, 43927.57, 30515.72, 29067.97, 33624.13, 31989.73, 0.000, 0.000, 0.000, 17:13:28.849, 1560867208849
192, 29004.05, 28621.47, 39047.69, 43898.31, 30489.41, 29039.23, 33599.12, 31957.05, 0.000, 0.000, 0.000, 17:13:28.849, 1560867208849
193, 29057.89, 28691.68, 39138.44, 43990.27, 30575.78, 29117.19, 33696.44, 32036.15, 0.000, 0.000, 0.000, 17:13:28.849, 1560867208849
194, 29112.10, 28747.18, 39203.26, 44059.87, 30640.24, 29177.14, 33768.23, 32101.93, 0.000, 0.000, 0.000, 17:13:28.849, 1560867208849
195, 29083.96, 28696.53, 39145.41, 43998.94, 30585.30, 29125.10, 33703.32, 32051.48, 0.006, 0.048, -1.038, 17:13:28.849, 1560867208849
196, 28983.26, 28580.77, 39017.27, 43868.63, 30460.80, 29009.14, 33570.06, 31935.34, 0.000, 0.000, 0.000, 17:13:28.850, 1560867208850
197, 28942.67, 28547.85, 38990.47, 43839.17, 30434.85, 28980.33, 33545.99, 31907.58, 0.000, 0.000, 0.000, 17:13:28.850, 1560867208850
198, 28992.58, 28620.85, 39083.59, 43934.50, 30524.81, 29063.70, 33646.37, 31992.70, 0.000, 0.000, 0.000, 17:13:28.850, 1560867208850
199, 29038.25, 28670.96, 39143.27, 44002.20, 30582.64, 29117.82, 33711.30, 32050.79, 0.000, 0.000, 0.000, 17:13:28.850, 1560867208850
200, 29015.27, 28629.59, 39087.77, 43948.49, 30530.87, 29068.35, 33652.76, 32007.23, 0.000, 0.000, 0.000, 17:13:28.850, 1560867208850
201, 28924.90, 28522.97, 38967.85, 43824.41, 30415.20, 28962.99, 33528.13, 31902.85, 0.000, 0.000, 0.000, 17:13:28.850, 1560867208850
202, 28878.90, 28484.01, 38933.65, 43789.50, 30382.08, 28929.06, 33497.91, 31872.85, 0.000, 0.000, 0.000, 17:13:28.850, 1560867208850
203, 28930.00, 28557.55, 39029.65, 43884.77, 30473.32, 29007.91, 33601.20, 31960.15, 0.000, 0.000, 0.000, 17:13:28.850, 1560867208850
204, 28996.04, 28613.72, 39108.60, 43965.14, 30548.53, 29074.72, 33683.54, 32038.90, 0.000, 0.000, 0.000, 17:13:28.851, 1560867208851
205, 28980.91, 28574.87, 39057.77, 43914.56, 30498.78, 29030.29, 33628.29, 31995.85, 0.004, 0.054, -1.036, 17:13:28.851, 1560867208851
206, 28911.04, 28494.52, 38954.60, 43807.29, 30398.35, 28938.04, 33516.42, 31898.20, 0.000, 0.000, 0.000, 17:13:28.851, 1560867208851
207, 28876.20, 28474.18, 38935.53, 43787.49, 30380.04, 28919.58, 33499.36, 31875.13, 0.000, 0.000, 0.000, 17:13:28.851, 1560867208851
208, 28933.08, 28557.46, 39040.29, 43895.23, 30481.03, 29010.98, 33609.49, 31965.81, 0.000, 0.000, 0.000, 17:13:28.851, 1560867208851
209, 29004.34, 28636.43, 39128.29, 43987.63, 30564.67, 29090.01, 33698.96, 32045.34, 0.000, 0.000, 0.000, 17:13:28.851, 1560867208851
210, 28987.02, 28599.48, 39082.85, 43942.10, 30521.15, 29050.45, 33644.96, 32000.57, 0.000, 0.000, 0.000, 17:13:28.851, 1560867208851
211, 28913.79, 28509.36, 38978.65, 43835.32, 30420.68, 28956.77, 33535.30, 31906.55, 0.000, 0.000, 0.000, 17:13:28.851, 1560867208851
212, 28878.14, 28487.50, 38956.59, 43811.68, 30399.22, 28933.62, 33514.76, 31885.99, 0.000, 0.000, 0.000, 17:13:28.852, 1560867208852
213, 28940.12, 28577.80, 39063.45, 43920.93, 30502.62, 29026.96, 33629.29, 31979.31, 0.000, 0.000, 0.000, 17:13:28.852, 1560867208852
214, 29001.28, 28647.54, 39145.50, 44006.20, 30582.17, 29102.89, 33715.79, 32055.84, 0.000, 0.000, 0.000, 17:13:28.852, 1560867208852
215, 28995.51, 28624.83, 39114.41, 43973.82, 30550.05, 29074.81, 33675.27, 32028.35, 0.004, 0.052, -1.036, 17:13:28.854, 1560867208854
216, 28931.92, 28547.71, 39022.41, 43880.59, 30460.24, 28993.94, 33574.18, 31941.58, 0.000, 0.000, 0.000, 17:13:28.854, 1560867208854
217, 28903.69, 28526.32, 39006.61, 43861.77, 30444.48, 28981.45, 33559.06, 31926.85, 0.000, 0.000, 0.000, 17:13:28.855, 1560867208855
218, 28972.40, 28615.95, 39109.52, 43966.28, 30544.98, 29076.02, 33670.58, 32023.07, 0.000, 0.000, 0.000, 17:13:28.855, 1560867208855
219, 29041.20, 28695.04, 39191.23, 44055.24, 30624.84, 29150.79, 33755.96, 32102.16, 0.000, 0.000, 0.000, 17:13:28.855, 1560867208855
220, 29030.98, 28665.62, 39154.42, 44018.18, 30590.13, 29118.94, 33715.17, 32073.03, 0.000, 0.000, 0.000, 17:13:28.855, 1560867208855
221, 28975.84, 28589.53, 39068.12, 43926.32, 30507.69, 29046.31, 33623.13, 31996.86, 0.000, 0.000, 0.000, 17:13:28.856, 1560867208856
222, 28955.10, 28574.00, 39055.05, 43912.30, 30494.51, 29039.79, 33610.83, 31984.03, 0.000, 0.000, 0.000, 17:13:28.856, 1560867208856
223, 29016.10, 28660.57, 39158.55, 44017.69, 30594.57, 29135.30, 33722.61, 32079.18, 0.000, 0.000, 0.000, 17:13:28.856, 1560867208856
224, 29088.13, 28738.78, 39247.96, 44110.14, 30681.21, 29215.76, 33814.14, 32162.62, 0.000, 0.000, 0.000, 17:13:28.856, 1560867208856
225, 29073.74, 28706.99, 39204.20, 44071.58, 30640.13, 29180.80, 33767.72, 32128.82, 0.002, 0.048, -1.032, 17:13:28.856, 1560867208856
226, 28999.76, 28613.65, 39101.83, 43963.33, 30541.13, 29086.82, 33657.90, 32033.02, 0.000, 0.000, 0.000, 17:13:28.856, 1560867208856
227, 28987.95, 28604.24, 39101.56, 43959.00, 30539.81, 29085.09, 33654.77, 32025.78, 0.000, 0.000, 0.000, 17:13:28.857, 1560867208857
228, 29051.48, 28687.75, 39203.91, 44062.08, 30635.77, 29175.37, 33760.66, 32116.04, 0.000, 0.000, 0.000, 17:13:28.859, 1560867208859
229, 29120.79, 28762.07, 39288.29, 44149.86, 30717.58, 29254.79, 33849.88, 32196.41, 0.000, 0.000, 0.000, 17:13:28.859, 1560867208859
230, 29120.99, 28751.54, 39264.26, 44130.23, 30696.46, 29241.62, 33822.75, 32180.88, 0.000, 0.000, 0.000, 17:13:28.860, 1560867208860
231, 29073.99, 28692.24, 39188.44, 44054.15, 30623.36, 29180.43, 33739.64, 32113.67, 0.000, 0.000, 0.000, 17:13:28.860, 1560867208860
232, 29059.88, 28683.46, 39183.32, 44049.79, 30618.33, 29179.29, 33735.87, 32107.50, 0.000, 0.000, 0.000, 17:13:28.860, 1560867208860
233, 29118.31, 28760.19, 39278.07, 44145.39, 30709.37, 29264.78, 33836.70, 32190.29, 0.000, 0.000, 0.000, 17:13:28.860, 1560867208860
234, 29201.32, 28849.69, 39376.39, 44248.20, 30803.23, 29355.62, 33934.20, 32278.49, 0.000, 0.000, 0.000, 17:13:28.860, 1560867208860
235, 29197.66, 28826.44, 39344.70, 44217.36, 30771.24, 29330.09, 33896.29, 32251.78, 0.004, 0.048, -1.030, 17:13:28.860, 1560867208860
236, 29161.85, 28774.32, 39282.72, 44150.10, 30713.82, 29276.65, 33825.48, 32194.63, 0.000, 0.000, 0.000, 17:13:28.861, 1560867208861
237, 29150.29, 28771.03, 39278.94, 44144.87, 30711.47, 29276.78, 33825.16, 32192.88, 0.000, 0.000, 0.000, 17:13:28.861, 1560867208861
238, 29223.90, 28873.49, 39391.64, 44262.93, 30819.99, 29382.22, 33945.93, 32296.19, 0.000, 0.000, 0.000, 17:13:28.861, 1560867208861
239, 29305.17, 28969.56, 39493.18, 44373.64, 30919.23, 29481.66, 34054.09, 32392.33, 0.000, 0.000, 0.000, 17:13:28.861, 1560867208861
240, 29310.36, 28960.95, 39475.37, 44356.95, 30899.81, 29465.23, 34031.07, 32381.48, 0.000, 0.000, 0.000, 17:13:28.861, 1560867208861
241, 29264.98, 28894.86, 39399.06, 44272.97, 30824.33, 29394.91, 33944.12, 32308.02, 0.000, 0.000, 0.000, 17:13:29.317, 1560867209317
242, 29253.27, 28888.64, 39395.15, 44266.20, 30821.58, 29394.33, 33942.11, 32301.58, 0.000, 0.000, 0.000, 17:13:29.317, 1560867209317
243, 29309.97, 28971.10, 39494.66, 44368.48, 30919.19, 29488.83, 34050.98, 32399.17, 0.000, 0.000, 0.000, 17:13:29.318, 1560867209318
244, 29373.01, 29042.58, 39577.65, 44453.84, 31001.20, 29566.64, 34141.24, 32481.71, 0.000, 0.000, 0.000, 17:13:29.319, 1560867209319
245, 29374.08, 29028.61, 39553.11, 44431.87, 30979.09, 29548.76, 34116.67, 32467.72, 0.010, 0.048, -1.024, 17:13:29.320, 1560867209320
246, 29302.82, 28942.96, 39451.50, 44331.44, 30884.28, 29466.86, 34013.97, 32376.97, 0.000, 0.000, 0.000, 17:13:29.321, 1560867209321
247, 29278.77, 28930.13, 39435.58, 44316.98, 30869.05, 29456.02, 34000.13, 32358.31, 0.000, 0.000, 0.000, 17:13:29.321, 1560867209321
248, 29313.02, 28989.41, 39504.52, 44391.61, 30936.20, 29523.10, 34080.84, 32427.22, 0.000, 0.000, 0.000, 17:13:29.322, 1560867209322
249, 29369.25, 29054.65, 39577.11, 44467.97, 31007.39, 29589.64, 34154.05, 32493.94, 0.000, 0.000, 0.000, 17:13:29.322, 1560867209322
250, 29373.52, 29039.30, 39555.39, 44442.93, 30985.82, 29570.55, 34124.95, 32471.54, 0.000, 0.000, 0.000, 17:13:29.323, 1560867209323
251, 29313.66, 28958.63, 39464.21, 44348.68, 30897.89, 29492.52, 34028.92, 32389.24, 0.000, 0.000, 0.000, 17:13:29.323, 1560867209323
252, 29282.93, 28928.05, 39436.37, 44323.22, 30870.64, 29471.04, 34000.78, 32357.97, 0.000, 0.000, 0.000, 17:13:29.324, 1560867209324
253, 29310.87, 28969.96, 39495.46, 44386.16, 30926.95, 29523.64, 34063.81, 32406.88, 0.000, 0.000, 0.000, 17:13:29.324, 1560867209324
254, 29363.75, 29028.28, 39566.57, 44458.64, 30994.36, 29585.84, 34132.18, 32471.07, 0.000, 0.000, 0.000, 17:13:29.324, 1560867209324
255, 29348.29, 28996.22, 39529.10, 44417.54, 30955.89, 29552.09, 34083.26, 32437.01, 0.008, 0.052, -1.026, 17:13:29.325, 1560867209325
0, 29297.26, 28926.11, 39447.79, 44330.84, 30876.99, 29481.03, 33992.02, 32366.00, 0.000, 0.000, 0.000, 17:13:29.325, 1560867209325
1, 29259.57, 28893.85, 39417.10, 44298.25, 30845.21, 29451.75, 33954.18, 32329.32, 0.000, 0.000, 0.000, 17:13:29.325, 1560867209325
2, 29291.45, 28942.24, 39483.08, 44363.67, 30908.01, 29509.08, 34024.34, 32385.98, 0.000, 0.000, 0.000, 17:13:29.326, 1560867209326
3, 29342.90, 28995.82, 39550.81, 44433.75, 30974.00, 29567.31, 34093.92, 32446.19, 0.000, 0.000, 0.000, 17:13:29.326, 1560867209326
4, 29327.28, 28961.45, 39514.44, 44394.90, 30938.01, 29532.51, 34051.90, 32414.99, 0.000, 0.000, 0.000, 17:13:29.326, 1560867209326
5, 29242.07, 28861.09, 39404.31, 44278.38, 30828.75, 29431.75, 33936.65, 32317.11, 0.000, 0.000, 0.000, 17:13:29.327, 1560867209327
6, 29179.22, 28805.16, 39350.60, 44223.21, 30774.64, 29376.70, 33883.05, 32262.98, 0.000, 0.000, 0.000, 17:13:29.327, 1560867209327
7, 29218.85, 28863.28, 39429.06, 44302.30, 30850.28, 29439.93, 33968.37, 32329.72, 0.000, 0.000, 0.000, 17:13:29.327, 1560867209327
8, 29276.49, 28922.15, 39500.67, 44379.01, 30921.27, 29506.29, 34049.35, 32403.81, 0.006, 0.050, -1.032, 17:13:29.327, 1560867209327
9, 29253.92, 28880.11, 39451.21, 44329.59, 30873.55, 29456.76, 33994.23, 32359.47, 0.000, 0.000, 0.000, 17:13:29.328, 1560867209328
10, 29183.51, 28786.14, 39349.93, 44223.48, 30775.85, 29364.02, 33886.20, 32269.73, 0.000, 0.000, 0.000, 17:13:29.328, 1560867209328
11, 29127.76, 28728.90, 39298.01, 44165.08, 30723.68, 29311.94, 33831.69, 32215.32, 0.000, 0.000, 0.000, 17:13:29.328, 1560867209328
12, 29147.86, 28764.55, 39353.66, 44216.18, 30775.02, 29353.54, 33889.73, 32257.32, 0.000, 0.000, 0.000, 17:13:29.328, 1560867209328
13, 29195.38, 28814.75, 39421.32, 44281.29, 30838.54, 29406.54, 33956.75, 32315.62, 0.000, 0.000, 0.000, 17:13:29.328, 1560867209328
14, 29167.37, 28778.92, 39374.25, 44230.97, 30791.63, 29360.33, 33901.07, 32273.12, 0.000, 0.000, 0.000, 17:13:29.329, 1560867209329
15, 29111.04, 28709.56, 39291.39, 44143.80, 30709.28, 29283.06, 33808.22, 32198.27, 0.000, 0.000, 0.000, 17:13:29.329, 1560867209329
16, 29060.89, 28657.26, 39244.90, 44093.93, 30660.98, 29234.61, 33757.41, 32147.62, 0.000, 0.000, 0.000, 17:13:29.329, 1560867209329
17, 29082.08, 28692.73, 39299.11, 44146.17, 30713.78, 29276.67, 33815.64, 32191.00, 0.000, 0.000, 0.000, 17:13:29.329, 1560867209329
18, 29116.81, 28730.95, 39344.37, 44197.11, 30759.80, 29315.90, 33866.11, 32231.97, 0.006, 0.054, -1.028, 17:13:29.330, 1560867209330
19, 29094.88, 28688.11, 39299.39, 44153.21, 30717.96, 29272.87, 33815.82, 32189.95, 0.000, 0.000, 0.000, 17:13:29.330, 1560867209330
20, 29024.50, 28601.40, 39205.16, 44051.89, 30624.30, 29178.82, 33707.05, 32094.13, 0.000, 0.000, 0.000, 17:13:29.330, 1560867209330
21, 28957.44, 28536.18, 39143.36, 43986.18, 30560.78, 29114.22, 33642.23, 32032.46, 0.000, 0.000, 0.000, 17:13:29.330, 1560867209330
22, 28967.84, 28558.06, 39188.55, 44027.14, 30600.95, 29144.53, 33691.57, 32070.33, 0.000, 0.000, 0.000, 17:13:29.331, 1560867209331
23, 29013.32, 28603.44, 39246.89, 44084.30, 30656.11, 29188.11, 33751.09, 32121.00, 0.000, 0.000, 0.000, 17:13:29.331, 1560867209331
24, 28990.28, 28557.46, 39196.38, 44033.00, 30607.23, 29136.59, 33696.28, 32073.75, 0.000, 0.000, 0.000, 17:13:29.331, 1560867209331
25, 28892.96, 28439.64, 39069.75, 43900.70, 30482.62, 29015.54, 33561.88, 31952.06, 0.000, 0.000, 0.000, 17:13:29.332, 1560867209332
26, 28832.59, 28381.64, 39010.97, 43835.10, 30426.58, 28955.77, 33504.28, 31892.27, 0.000, 0.000, 0.000, 17:13:29.332, 1560867209332
27, 28849.31, 28412.49, 39061.86, 43887.56, 30475.71, 28998.55, 33564.72, 31937.96, 0.000, 0.000, 0.000, 17:13:29.332, 1560867209332
28, 28882.99, 28448.70, 39113.00, 43944.07, 30524.84, 29039.16, 33620.02, 31987.11, 0.010, 0.052, -1.036, 17:13:29.332, 1560867209332
29, 28846.13, 28395.19, 39049.99, 43881.08, 30464.98, 28977.43, 33554.91, 31935.75, 0.000, 0.000, 0.000, 17:13:29.332, 1560867209332
30, 28741.57, 28271.78, 38913.56, 43739.55, 30333.30, 28847.56, 33415.10, 31814.78, 0.000, 0.000, 0.000, 17:13:29.333, 1560867209333
31, 28680.08, 28208.75, 38848.16, 43674.84, 30270.38, 28781.47, 33352.40, 31754.14, 0.000, 0.000, 0.000, 17:13:29.333, 1560867209333
32, 28682.99, 28228.17, 38883.63, 43709.48, 30305.57, 28804.78, 33395.09, 31784.27, 0.000, 0.000, 0.000, 17:13:29.333, 1560867209333
33, 28726.42, 28279.27, 38945.54, 43775.24, 30366.14, 28856.35, 33464.54, 31843.48, 0.000, 0.000, 0.000, 17:13:29.333, 1560867209333
34, 28696.58, 28232.40, 38892.08, 43720.41, 30314.53, 28799.98, 33403.07, 31790.75, 0.000, 0.000, 0.000, 17:13:29.334, 1560867209334
35, 28600.42, 28115.95, 38764.54, 43586.97, 30193.36, 28683.75, 33271.20, 31678.43, 0.000, 0.000, 0.000, 17:13:29.334, 1560867209334
36, 28540.74, 28059.93, 38711.01, 43531.05, 30138.33, 28639.54, 33213.98, 31627.96, 0.000, 0.000, 0.000, 17:13:29.335, 1560867209335
37, 28561.13, 28100.93, 38771.91, 43589.72, 30192.36, 28697.38, 33277.03, 31682.68, 0.000, 0.000, 0.000, 17:13:29.336, 1560867209336
38, 28613.18, 28159.89, 38841.14, 43660.44, 30257.42, 28760.12, 33350.23, 31752.46, 0.006, 0.056, -1.038, 17:13:29.336, 1560867209336
39, 28573.73, 28100.25, 38776.41, 43592.92, 30190.46, 28706.86, 33276.98, 31690.50, 0.000, 0.000, 0.000, 17:13:29.337, 1560867209337
40, 28468.48, 27972.96, 38636.17, 43446.25, 30052.84, 28591.41, 33125.87, 31559.99, 0.000, 0.000, 0.000, 17:13:29.338, 1560867209338
41, 28421.94, 27925.44, 38589.64, 43397.79, 30009.21, 28567.27, 33076.18, 31517.32, 0.000, 0.000, 0.000, 17:13:29.338, 1560867209338
42, 28435.53, 27953.94, 38634.63, 43448.17, 30054.45, 28605.63, 33126.43, 31562.12, 0.000, 0.000, 0.000, 17:13:29.338, 1560867209338
43, 28469.59, 27997.64, 38687.14, 43509.68, 30109.23, 28663.83, 33187.04, 31616.43, 0.000, 0.000, 0.000, 17:13:29.338, 1560867209338
44, 28439.49, 27948.82, 38626.18, 43452.91, 30052.66, 28617.41, 33124.73, 31567.88, 0.000, 0.000, 0.000, 17:13:29.339, 1560867209339
45, 28339.42, 27823.99, 38481.84, 43312.58, 29915.22, 28494.88, 32976.87, 31439.70, 0.000, 0.000, 0.000, 17:13:29.339, 1560867209339
46, 28274.80, 27765.47, 38422.38, 43251.47, 29859.38, 28437.77, 32915.34, 31379.84, 0.000, 0.000, 0.000, 17:13:29.339, 1560867209339
47, 28292.79, 27809.30, 38474.57, 43308.05, 29910.52, 28482.96, 32973.63, 31424.23, 0.000, 0.000, 0.000, 17:13:29.339, 1560867209339
48, 28338.52, 27860.40, 38536.62, 43372.84, 29969.33, 28541.28, 33038.47, 31482.61, 0.008, 0.048, -1.034, 17:13:29.340, 1560867209340
49, 28305.20, 27805.90, 38477.88, 43309.52, 29910.97, 28494.14, 32972.91, 31427.54, 0.000, 0.000, 0.000, 17:13:29.340, 1560867209340
50, 28183.89, 27657.98, 38313.23, 43140.09, 29751.06, 28351.80, 32796.47, 31268.32, 0.000, 0.000, 0.000, 17:13:29.340, 1560867209340
51, 28084.25, 27555.36, 38210.57, 43037.23, 29651.13, 28257.77, 32690.19, 31162.62, 0.000, 0.000, 0.000, 17:13:29.340, 1560867209340
52, 28083.00, 27571.48, 38247.28, 43071.56, 29684.26, 28284.48, 32730.93, 31186.36, 0.000, 0.000, 0.000, 17:13:29.341, 1560867209341
53, 28115.77, 27613.63, 38302.46, 43129.21, 29735.22, 28333.38, 32788.98, 31231.33, 0.000, 0.000, 0.000, 17:13:29.341, 1560867209341
54, 28066.23, 27542.78, 38225.57, 43052.34, 29660.63, 28266.30, 32707.04, 31154.22, 0.000, 0.000, 0.000, 17:13:29.341, 1560867209341
55, 27951.01, 27410.41, 38074.27, 42899.90, 29513.02, 28131.28, 32546.42, 31007.61, 0.000, 0.000, 0.000, 17:13:29.341, 1560867209341
56, 27892.63, 27358.54, 38022.53, 42844.27, 29460.96, 28082.93, 32492.98, 30951.98, 0.000, 0.000, 0.000, 17:13:29.342, 1560867209342
57, 27941.54, 27432.47, 38113.93, 42935.71, 29549.16, 28163.17, 32592.13, 31032.65, 0.000, 0.000, 0.000, 17:13:29.342, 1560867209342
58, 28015.16, 27519.20, 38212.47, 43039.09, 29640.69, 28247.15, 32691.44, 31118.07, 0.006, 0.046, -1.030, 17:13:29.342, 1560867209342
59, 28016.97, 27508.65, 38196.54, 43025.96, 29623.84, 28230.01, 32671.83, 31102.16, 0.000, 0.000, 0.000, 17:13:29.342, 1560867209342
60, 27970.03, 27452.01, 38128.45, 42951.29, 29556.47, 28161.97, 32593.51, 31035.71, 0.000, 0.000, 0.000, 17:13:29.343, 1560867209343
61, 27950.99, 27446.53, 38122.87, 42942.93, 29548.83, 28153.43, 32586.16, 31024.94, 0.000, 0.000, 0.000, 17:13:29.343, 1560867209343
62, 28000.65, 27523.00, 38217.44, 43036.76, 29638.21, 28232.40, 32686.94, 31105.74, 0.000, 0.000, 0.000, 17:13:29.343, 1560867209343
63, 28092.63, 27626.87, 38334.07, 43154.87, 29751.89, 28333.27, 32808.36, 31214.99, 0.000, 0.000, 0.000, 17:13:29.343, 1560867209343
64, 28118.40, 27642.60, 38338.29, 43162.69, 29758.51, 28340.45, 32810.41, 31225.36, 0.000, 0.000, 0.000, 17:13:29.344, 1560867209344
65, 28057.50, 27568.35, 38242.78, 43065.98, 29666.46, 28257.37, 32709.83, 31140.81, 0.000, 0.000, 0.000, 17:13:29.344, 1560867209344
66, 28042.34, 27562.56, 38233.66, 43054.33, 29659.29, 28248.11, 32701.43, 31130.82, 0.000, 0.000, 0.000, 17:13:29.344, 1560867209344
67, 28111.56, 27658.34, 38341.11, 43166.11, 29766.96, 28347.02, 32820.72, 31231.55, 0.000, 0.000, 0.000, 17:13:29.344, 1560867209344
68, 28215.48, 27774.95, 38465.99, 43298.66, 29887.14, 28461.03, 32950.54, 31350.31, 0.002, 0.048, -1.028, 17:13:29.345, 1560867209345
69, 28239.42, 27786.41, 38463.98, 43301.83, 29885.04, 28459.00, 32944.53, 31356.48, 0.000, 0.000, 0.000, 17:13:29.345, 1560867209345
70, 28202.11, 27730.38, 38391.54, 43230.26, 29813.81, 28392.84, 32861.13, 31294.05, 0.000, 0.000, 0.000, 17:13:29.345, 1560867209345
71, 28192.88, 27725.75, 38389.45, 43224.59, 29811.79, 28391.70, 32858.38, 31289.94, 0.000, 0.000, 0.000, 17:13:29.345, 1560867209345
72, 28265.93, 27821.69, 38503.47, 43336.93, 29922.01, 28496.66, 32980.60, 31391.79, 0.000, 0.000, 0.000, 17:13:29.346, 1560867209346
73, 28338.75, 27903.29, 38597.80, 43430.06, 30011.78, 28585.47, 33081.48, 31476.49, 0.000, 0.000, 0.000, 17:13:29.346, 1560867209346
74, 28358.86, 27917.80, 38600.84, 43437.29, 30013.05, 28595.70, 33084.34, 31480.98, 0.000, 0.000, 0.000, 17:13:29.346, 1560867209346
75, 28315.35, 27861.52, 38526.61, 43364.66, 29940.32, 28533.70, 33008.68, 31412.00, 0.000, 0.000, 0.000, 17:13:29.346, 1560867209346
76, 28281.01, 27835.59, 38502.18, 43335.96, 29913.36, 28509.98, 32980.09, 31380.13, 0.000, 0.000, 0.000, 17:13:29.346, 1560867209346
77, 28346.50, 27928.26, 38614.74, 43447.68, 30020.18, 28608.47, 33095.18, 31473.78, 0.000, 0.000, 0.000, 17:13:29.347, 1560867209347
78, 28446.55, 28039.61, 38740.06, 43575.13, 30140.57, 28722.35, 33223.52, 31595.08, 0.008, 0.048, -1.028, 17:13:29.347, 1560867209347
79, 28456.92, 28036.37, 38722.68, 43559.21, 30126.60, 28713.36, 33202.91, 31591.75, 0.000, 0.000, 0.000, 17:13:29.347, 1560867209347
80, 28384.79, 27951.64, 38616.28, 43455.61, 30025.57, 28624.27, 33092.76, 31502.21, 0.000, 0.000, 0.000, 17:13:29.348, 1560867209348
81, 28345.10, 27920.68, 38580.45, 43423.40, 29988.35, 28593.71, 33053.49, 31464.26, 0.000, 0.000, 0.000, 17:13:29.348, 1560867209348
82, 28395.25, 27991.16, 38671.04, 43517.57, 30073.71, 28677.53, 33151.48, 31548.44, 0.000, 0.000, 0.000, 17:13:29.349, 1560867209349
83, 28477.66, 28082.11, 38778.66, 43632.53, 30175.10, 28776.28, 33266.73, 31651.41, 0.000, 0.000, 0.000, 17:13:29.349, 1560867209349
84, 28475.85, 28066.84, 38757.70, 43613.53, 30155.95, 28763.19, 33245.43, 31640.66, 0.000, 0.000, 0.000, 17:13:29.350, 1560867209350
85, 28411.50, 27980.11, 38656.31, 43509.84, 30058.13, 28679.54, 33138.09, 31554.34, 0.000, 0.000, 0.000, 17:13:29.350, 1560867209350
86, 28386.36, 27953.61, 38629.71, 43480.94, 30031.89, 28656.14, 33107.27, 31525.77, 0.000, 0.000, 0.000, 17:13:29.350, 1560867209350
87, 28435.31, 28022.11, 38716.30, 43566.23, 30113.45, 28732.05, 33197.10, 31604.67, 0.000, 0.000, 0.000, 17:13:29.350, 1560867209350
88, 28512.09, 28105.13, 38817.91, 43665.20, 30212.32, 28820.65, 33305.19, 31695.53, 0.008, 0.044, -1.026, 17:13:29.350, 1560867209350
89, 28532.98, 28103.88, 38820.57, 43668.82, 30218.04, 28824.47, 33302.89, 31701.57, 0.000, 0.000, 0.000, 17:13:29.351, 1560867209351
90, 28484.10, 28037.71, 38745.50, 43589.50, 30150.56, 28736.99, 33232.15, 31661.85, 0.000, 0.000, 0.000, 17:13:29.351, 1560867209351
91, 28466.38, 28028.30, 38730.95, 43574.12, 30137.73, 28729.37, 33215.41, 31650.90, 0.000, 0.000, 0.000, 17:13:29.351, 1560867209351
92, 28517.23, 28094.20, 38816.62, 43657.40, 30220.54, 28815.15, 33301.62, 31714.82, 0.000, 0.000, 0.000, 17:13:29.351, 1560867209351
93, 28600.26, 28186.69, 38923.01, 43766.48, 30325.71, 28900.89, 33413.44, 31808.90, 0.000, 0.000, 0.000, 17:13:29.351, 1560867209351
94, 28615.80, 28191.20, 38921.07, 43763.17, 30323.85, 28899.26, 33410.78, 31816.19, 0.000, 0.000, 0.000, 17:13:29.353, 1560867209353
95, 28571.59, 28127.86, 38844.61, 43685.07, 30249.78, 28825.70, 33324.06, 31742.74, 0.000, 0.000, 0.000, 17:13:29.354, 1560867209354
96, 28529.38, 28085.26, 38807.28, 43644.84, 30212.25, 28787.28, 33286.06, 31704.88, 0.000, 0.000, 0.000, 17:13:29.354, 1560867209354
97, 28598.52, 28170.51, 38919.66, 43754.68, 30323.47, 28884.89, 33404.43, 31804.21, 0.000, 0.000, 0.000, 17:13:29.354, 1560867209354
98, 28701.16, 28279.47, 39051.29, 43888.30, 30451.68, 28999.67, 33541.29, 31921.06, 0.008, 0.050, -1.024, 17:13:29.354, 1560867209354
99, 28734.33, 28299.28, 39071.47, 43912.48, 30473.05, 29015.27, 33562.44, 31940.73, 0.000, 0.000, 0.000, 17:13:29.354, 1560867209354
100, 28712.71, 28260.11, 39021.41, 43862.37, 30423.34, 28968.22, 33502.94, 31895.80, 0.000, 0.000, 0.000, 17:13:29.354, 1560867209354
101, 28709.59, 28252.87, 39023.82, 43852.18, 30420.25, 28965.42, 33495.94, 31890.60, 0.000, 0.000, 0.000, 17:13:29.354, 1560867209354
102, 28787.26, 28334.26, 39131.78, 43954.46, 30521.71, 29054.65, 33605.80, 31983.74, 0.000, 0.000, 0.000, 17:13:29.354, 1560867209354
103, 28897.21, 28447.02, 39262.96, 44091.95, 30649.96, 29175.17, 33744.34, 32110.04, 0.000, 0.000, 0.000, 17:13:29.355, 1560867209355
104, 28919.00, 28454.64, 39267.52, 44097.62, 30653.63, 29184.40, 33746.08, 32118.90, 0.000, 0.000, 0.000, 17:13:29.355, 1560867209355
105, 28850.07, 28362.42, 39167.21, 43991.34, 30556.13, 29094.08, 33638.91, 32025.22, 0.000, 0.000, 0.000, 17:13:29.792, 1560867209792
106, 28818.80, 28325.83, 39134.91, 43954.75, 30523.52, 29065.85, 33601.49, 31987.16, 0.000, 0.000, 0.000, 17:13:29.793, 1560867209793
107, 28878.59, 28401.00, 39227.89, 44047.42, 30612.28, 29146.41, 33697.58, 32066.75, 0.000, 0.000, 0.000, 17:13:29.793, 1560867209793
108, 28941.69, 28473.17, 39317.14, 44139.51, 30699.85, 29225.42, 33794.41, 32149.47, 0.010, 0.048, -1.026, 17:13:29.793, 1560867209793
109, 28965.49, 28484.19, 39328.59, 44154.37, 30711.63, 29238.09, 33802.83, 32159.87, 0.000, 0.000, 0.000, 17:13:29.793, 1560867209793
110, 28931.58, 28429.90, 39268.62, 44090.85, 30655.26, 29186.19, 33737.90, 32107.25, 0.000, 0.000, 0.000, 17:13:29.793, 1560867209793
111, 28912.09, 28422.16, 39257.89, 44076.54, 30644.58, 29177.63, 33725.61, 32093.44, 0.000, 0.000, 0.000, 17:13:29.794, 1560867209794
112, 29016.94, 28552.97, 39406.88, 44229.27, 30789.08, 29321.93, 33881.09, 32230.30, 0.000, 0.000, 0.000, 17:13:29.794, 1560867209794
113, 29152.28, 28705.29, 39575.64, 44408.54, 30952.14, 29478.55, 34059.25, 32392.86, 0.000, 0.000, 0.000, 17:13:29.794, 1560867209794
114, 29241.58, 28798.50, 39669.85, 44507.24, 31043.91, 29569.10, 34151.79, 32489.36, 0.000, 0.000, 0.000, 17:13:29.794, 1560867209794
115, 29274.37, 28828.43, 39688.09, 44525.79, 31061.01, 29604.55, 34168.06, 32514.10, 0.000, 0.000, 0.000, 17:13:29.794, 1560867209794
116, 29318.40, 28884.02, 39738.52, 44577.36, 31108.46, 29656.20, 34219.83, 32563.52, 0.000, 0.000, 0.000, 17:13:29.794, 1560867209794
117, 29417.42, 29004.52, 39870.44, 44712.32, 31236.34, 29774.40, 34356.84, 32686.81, 0.008, 0.042, -1.024, 17:13:29.794, 1560867209794
118, 29509.51, 29107.25, 39978.73, 44826.04, 31341.41, 29878.45, 34468.73, 32790.59, 0.000, 0.000, 0.000, 17:13:29.797, 1560867209797
119, 29515.43, 29095.24, 39948.46, 44799.15, 31314.32, 29862.96, 34433.18, 32770.99, 0.000, 0.000, 0.000, 17:13:29.797, 1560867209797
120, 29440.11, 28990.28, 39817.26, 44661.89, 31189.24, 29753.28, 34291.38, 32654.18, 0.000, 0.000, 0.000, 17:13:29.797, 1560867209797
121, 29338.81, 28887.48, 39700.03, 44545.37, 31076.14, 29655.94, 34169.09, 32545.81, 0.000, 0.000, 0.000, 17:13:29.798, 1560867209798
122, 29324.95, 28888.20, 39709.19, 44557.57, 31086.67, 29670.80, 34182.93, 32555.27, 0.000, 0.000, 0.000, 17:13:29.798, 1560867209798
123, 29336.11, 28897.90, 39733.15, 44582.54, 31110.68, 29693.49, 34211.91, 32577.51, 0.000, 0.000, 0.000, 17:13:29.798, 1560867209798
124, 29307.49, 28854.07, 39682.10, 44532.30, 31059.56, 29646.55, 34157.73, 32530.86, 0.000, 0.000, 0.000, 17:13:29.799, 1560867209799
125, 29223.23, 28748.16, 39563.19, 44411.93, 30943.60, 29542.05, 34032.96, 32422.46, 0.000, 0.000, 0.000, 17:13:29.799, 1560867209799
126, 29159.06, 28681.80, 39495.24, 44342.08, 30875.80, 29480.45, 33963.12, 32359.83, 0.000, 0.000, 0.000, 17:13:29.799, 1560867209799
127, 29161.07, 28703.21, 39531.20, 44377.96, 30909.51, 29511.07, 34002.61, 32390.25, 0.006, 0.044, -1.026, 17:13:29.799, 1560867209799
128, 29191.47, 28740.90, 39583.73, 44429.37, 30959.02, 29557.99, 34058.83, 32437.21, 0.000, 0.000, 0.000, 17:13:29.799, 1560867209799
129, 29162.72, 28700.33, 39529.68, 44382.52, 30905.78, 29515.39, 34001.54, 32389.31, 0.000, 0.000, 0.000, 17:13:29.799, 1560867209799
130, 29088.83, 28610.37, 39425.39, 44275.05, 30807.47, 29417.64, 33889.71, 32294.38, 0.000, 0.000, 0.000, 17:13:29.799, 1560867209799
131, 29034.07, 28557.79, 39366.29, 44215.08, 30749.47, 29360.09, 33827.73, 32237.00, 0.000, 0.000, 0.000, 17:13:29.799, 1560867209799
132, 29023.92, 28567.56, 39384.31, 44237.70, 30767.80, 29374.06, 33852.48, 32248.34, 0.000, 0.000, 0.000, 17:13:29.799, 1560867209799
133, 29056.06, 28613.00, 39442.18, 44297.09, 30825.36, 29425.13, 33916.11, 32302.40, 0.000, 0.000, 0.000, 17:13:29.801, 1560867209801
134, 29059.48, 28604.58, 39427.61, 44286.92, 30811.95, 29411.61, 33898.68, 32291.88, 0.000, 0.000, 0.000, 17:13:29.801, 1560867209801
135, 29002.39, 28521.63, 39331.27, 44190.27, 30720.08, 29327.28, 33796.93, 32202.34, 0.000, 0.000, 0.000, 17:13:29.802, 1560867209802
136, 28940.61, 28457.66, 39265.42, 44121.54, 30654.63, 29266.93, 33726.97, 32134.54, 0.000, 0.000, 0.000, 17:13:29.802, 1560867209802
137, 28957.22, 28494.79, 39312.65, 44165.79, 30698.47, 29310.62, 33776.68, 32168.47, 0.008, 0.050, -1.026, 17:13:29.802, 1560867209802
138, 29002.86, 28553.53, 39378.65, 44237.99, 30760.94, 29371.06, 33848.74, 32230.39, 0.000, 0.000, 0.000, 17:13:29.802, 1560867209802
139, 29010.62, 28556.10, 39375.23, 44238.14, 30756.71, 29366.82, 33844.63, 32233.96, 0.000, 0.000, 0.000, 17:13:29.803, 1560867209803
140, 28974.97, 28505.00, 39311.11, 44171.72, 30693.37, 29311.81, 33773.80, 32177.01, 0.000, 0.000, 0.000, 17:13:29.803, 1560867209803
141, 28937.10, 28465.17, 39269.76, 44123.84, 30651.13, 29270.59, 33726.84, 32130.47, 0.000, 0.000, 0.000, 17:13:29.803, 1560867209803
142, 28964.17, 28510.72, 39323.87, 44179.18, 30702.51, 29314.94, 33787.86, 32175.87, 0.000, 0.000, 0.000, 17:13:29.803, 1560867209803
143, 29022.26, 28581.31, 39402.41, 44260.10, 30777.81, 29387.04, 33873.82, 32247.96, 0.000, 0.000, 0.000, 17:13:29.803, 1560867209803
144, 29041.60, 28595.08, 39404.92, 44266.71, 30781.79, 29394.38, 33877.67, 32251.58, 0.000, 0.000, 0.000, 17:13:29.804, 1560867209804
145, 29011.80, 28545.88, 39341.50, 44201.91, 30720.48, 29335.46, 33807.93, 32190.18, 0.000, 0.000, 0.000, 17:13:29.804, 1560867209804
146, 28985.63, 28519.08, 39309.88, 44165.26, 30690.31, 29300.70, 33777.75, 32165.39, 0.000, 0.000, 0.000, 17:13:29.804, 1560867209804
147, 29022.60, 28572.30, 39375.19, 44228.98, 30756.09, 29371.78, 33848.16, 32221.29, 0.010, 0.046, -1.028, 17:13:29.805, 1560867209805
148, 29089.05, 28651.61, 39464.30, 44321.34, 30843.26, 29458.70, 33942.69, 32306.05, 0.000, 0.000, 0.000, 17:13:29.805, 1560867209805
149, 29119.49, 28675.32, 39482.16, 44341.84, 30859.02, 29478.02, 33952.68, 32321.09, 0.000, 0.000, 0.000, 17:13:29.805, 1560867209805
150, 29074.97, 28618.66, 39413.23, 44273.44, 30791.58, 29422.00, 33877.06, 32263.24, 0.000, 0.000, 0.000, 17:13:29.805, 1560867209805
151, 29050.29, 28600.35, 39387.37, 44249.10, 30765.19, 29400.61, 33851.02, 32243.75, 0.000, 0.000, 0.000, 17:13:29.805, 1560867209805
152, 29086.14, 28655.74, 39454.74, 44305.61, 30828.33, 29462.41, 33922.55, 32308.10, 0.000, 0.000, 0.000, 17:13:29.805, 1560867209805
153, 29157.58, 28743.85, 39554.85, 44402.27, 30924.78, 29554.75, 34024.92, 32400.04, 0.000, 0.000, 0.000, 17:13:29.805, 1560867209805
154, 29185.03, 28762.11, 39570.61, 44421.50, 30942.44, 29574.02, 34038.20, 32418.37, 0.000, 0.000, 0.000, 17:13:29.805, 1560867209805
155, 29153.58, 28708.80, 39508.20, 44355.34, 30882.31, 29523.26, 33967.18, 32359.83, 0.000, 0.000, 0.000, 17:13:29.805, 1560867209805
156, 29132.44, 28694.05, 39484.63, 44324.16, 30857.72, 29507.03, 33937.01, 32335.87, 0.000, 0.000, 0.000, 17:13:29.806, 1560867209806
157, 29146.92, 28725.50, 39530.89, 44369.80, 30901.53, 29555.00, 33983.46, 32376.01, 0.014, 0.048, -1.034, 17:13:29.806, 1560867209806
158, 29194.75, 28773.82, 39603.85, 44445.13, 30973.13, 29624.80, 34057.57, 32440.83, 0.000, 0.000, 0.000, 17:13:29.806, 1560867209806
159, 29218.51, 28778.45, 39614.29, 44458.49, 30985.53, 29636.98, 34064.64, 32456.63, 0.000, 0.000, 0.000, 17:13:29.806, 1560867209806
160, 29182.06, 28704.47, 39541.24, 44385.40, 30916.60, 29577.41, 33986.52, 32397.60, 0.000, 0.000, 0.000, 17:13:29.806, 1560867209806
161, 29126.29, 28630.77, 39478.01, 44317.65, 30854.97, 29519.46, 33920.92, 32341.99, 0.000, 0.000, 0.000, 17:13:29.806, 1560867209806
162, 29128.46, 28653.35, 39503.31, 44345.10, 30878.58, 29538.16, 33947.85, 32362.82, 0.000, 0.000, 0.000, 17:13:29.806, 1560867209806
163, 29166.88, 28696.80, 39561.78, 44400.51, 30932.31, 29582.73, 34007.64, 32415.01, 0.000, 0.000, 0.000, 17:13:29.806, 1560867209806
164, 29153.58, 28684.35, 39537.20, 44368.97, 30908.39, 29558.04, 33977.60, 32391.63, 0.000, 0.000, 0.000, 17:13:29.806, 1560867209806
165, 29083.35, 28601.43, 39439.74, 44263.18, 30816.97, 29472.41, 33872.77, 32300.64, 0.000, 0.000, 0.000, 17:13:29.806, 1560867209806
166, 29017.79, 28520.33, 39370.45, 44189.64, 30749.05, 29398.06, 33799.21, 32233.56, 0.000, 0.000, 0.000, 17:13:29.806, 1560867209806
167, 28992.54, 28501.78, 39367.66, 44187.90, 30744.64, 29386.57, 33799.91, 32230.39, 0.010, 0.048, -1.038, 17:13:29.806, 1560867209806
168, 28992.60, 28497.60, 39379.35, 44199.77, 30756.40, 29383.09, 33815.57, 32241.85, 0.000, 0.000, 0.000, 17:13:29.806, 1560867209806
169, 28950.67, 28436.80, 39320.29, 44139.38, 30697.66, 29314.96, 33752.72, 32184.74, 0.000, 0.000, 0.000, 17:13:29.807, 1560867209807
170, 28861.11, 28321.85, 39202.32, 44017.40, 30580.34, 29197.41, 33621.98, 32067.46, 0.000, 0.000, 0.000, 17:13:29.807, 1560867209807
171, 28756.17, 28209.64, 39088.48, 43904.55, 30469.70, 29082.14, 33503.66, 31954.54, 0.000, 0.000, 0.000, 17:13:29.807, 1560867209807
172, 28694.90, 28156.42, 39046.17, 43856.94, 30426.74, 29024.83, 33461.03, 31904.70, 0.000, 0.000, 0.000, 17:13:29.807, 1560867209807
173, 28656.03, 28125.24, 39030.73, 43831.25, 30409.08, 28987.60, 33445.50, 31880.83, 0.000, 0.000, 0.000, 17:13:29.807, 1560867209807
174, 28607.17, 28074.21, 38978.91, 43777.14, 30357.83, 28928.21, 33390.02, 31829.08, 0.000, 0.000, 0.000, 17:13:29.807, 1560867209807
175, 28557.48, 28021.40, 38917.71, 43721.42, 30299.44, 28867.30, 33328.08, 31776.15, 0.000, 0.000, 0.000, 17:13:29.807, 1560867209807
176, 28536.11, 28004.97, 38904.48, 43704.61, 30282.72, 28839.20, 33313.66, 31759.01, 0.000, 0.000, 0.000, 17:13:29.807, 1560867209807
177, 28544.88, 28013.87, 38948.14, 43744.91, 30326.46, 28869.82, 33369.68, 31802.82, 0.006, 0.050, -1.034, 17:13:29.808, 1560867209808
178, 28592.95, 28066.91, 39024.67, 43824.44, 30398.84, 28924.32, 33451.87, 31872.20, 0.000, 0.000, 0.000, 17:13:29.808, 1560867209808
179, 28610.14, 28075.49, 39033.36, 43834.90, 30404.12, 28916.12, 33452.65, 31877.03, 0.000, 0.000, 0.000, 17:13:29.808, 1560867209808
180, 28562.49, 28006.71, 38962.73, 43761.23, 30333.91, 28861.69, 33377.30, 31817.24, 0.000, 0.000, 0.000, 17:13:29.808, 1560867209808
181, 28508.04, 27943.70, 38908.95, 43704.01, 30283.80, 28824.21, 33327.55, 31772.11, 0.000, 0.000, 0.000, 17:13:29.808, 1560867209808
182, 28510.90, 27962.39, 38937.21, 43732.89, 30305.99, 28857.82, 33357.38, 31792.09, 0.000, 0.000, 0.000, 17:13:29.808, 1560867209808
183, 28556.99, 28018.02, 39011.50, 43815.63, 30375.19, 28943.99, 33435.93, 31859.15, 0.000, 0.000, 0.000, 17:13:29.808, 1560867209808
184, 28571.00, 28028.66, 39025.41, 43837.78, 30390.79, 28962.92, 33451.80, 31873.38, 0.000, 0.000, 0.000, 17:13:29.808, 1560867209808
185, 28548.25, 27993.73, 38983.52, 43791.04, 30346.94, 28926.71, 33399.61, 31825.93, 0.000, 0.000, 0.000, 17:13:29.809, 1560867209809
186, 28513.54, 27960.60, 38942.46, 43747.64, 30305.12, 28896.07, 33359.95, 31794.97, 0.000, 0.000, 0.000, 17:13:29.809, 1560867209809
187, 28530.21, 27983.40, 38981.11, 43779.60, 30340.77, 28931.00, 33404.82, 31830.13, 0.010, 0.050, -1.032, 17:13:29.809, 1560867209809
188, 28586.94, 28049.61, 39063.20, 43863.35, 30420.34, 29024.28, 33492.16, 31905.62, 0.000, 0.000, 0.000, 17:13:29.809, 1560867209809
189, 28621.25, 28077.54, 39090.88, 43895.09, 30446.79, 29056.66, 33518.94, 31929.20, 0.000, 0.000, 0.000, 17:13:29.809, 1560867209809
190, 28595.77, 28040.96, 39036.47, 43844.51, 30394.97, 29026.82, 33462.04, 31878.01, 0.000, 0.000, 0.000, 17:13:29.809, 1560867209809
191, 28591.86, 28035.55, 39025.83, 43838.43, 30384.11, 29038.92, 33448.18, 31864.15, 0.000, 0.000, 0.000, 17:13:29.809, 1560867209809
192, 28614.01, 28072.07, 39071.05, 43888.21, 30427.59, 29076.89, 33504.32, 31909.35, 0.000, 0.000, 0.000, 17:13:29.809, 1560867209809
193, 28693.89, 28160.69, 39175.21, 43991.99, 30529.76, 29173.94, 33617.18, 32012.01, 0.000, 0.000, 0.000, 17:13:29.810, 1560867209810
194, 28772.86, 28239.51, 39256.32, 44071.18, 30607.76, 29252.87, 33695.30, 32088.45, 0.000, 0.000, 0.000, 17:13:29.810, 1560867209810
195, 28787.06, 28248.25, 39258.09, 44073.23, 30607.54, 29258.19, 33691.32, 32087.85, 0.000, 0.000, 0.000, 17:13:29.810, 1560867209810
196, 28800.22, 28264.25, 39274.23, 44088.46, 30622.58, 29266.77, 33708.91, 32099.56, 0.000, 0.000, 0.000, 17:13:29.810, 1560867209810
197, 28870.05, 28349.39, 39371.50, 44188.19, 30722.90, 29351.19, 33814.50, 32189.51, 0.008, 0.046, -1.032, 17:13:29.810, 1560867209810
198, 28977.63, 28467.02, 39499.75, 44320.02, 30849.29, 29470.93, 33942.60, 32305.82, 0.000, 0.000, 0.000, 17:13:29.810, 1560867209810
199, 29034.45, 28511.19, 39543.88, 44359.16, 30891.65, 29518.03, 33976.30, 32342.59, 0.000, 0.000, 0.000, 17:13:29.810, 1560867209810
200, 29034.51, 28490.76, 39512.72, 44329.68, 30864.72, 29504.77, 33940.34, 32315.66, 0.000, 0.000, 0.000, 17:13:29.810, 1560867209810
201, 29022.38, 28470.44, 39484.55, 44307.93, 30838.90, 29481.08, 33910.99, 32292.44, 0.000, 0.000, 0.000, 17:13:29.810, 1560867209810
202, 29035.09, 28489.91, 39511.65, 44335.00, 30868.00, 29503.83, 33939.71, 32316.67, 0.000, 0.000, 0.000, 17:13:29.811, 1560867209811
203, 29074.25, 28539.29, 39571.41, 44391.93, 30926.81, 29558.55, 33998.25, 32370.69, 0.000, 0.000, 0.000, 17:13:29.811, 1560867209811
204, 29099.29, 28560.32, 39586.12, 44410.12, 30944.27, 29567.31, 34015.64, 32395.57, 0.000, 0.000, 0.000, 17:13:29.811, 1560867209811
205, 29071.79, 28514.54, 39526.85, 44352.39, 30887.18, 29514.11, 33949.93, 32351.78, 0.000, 0.000, 0.000, 17:13:29.811, 1560867209811
206, 29029.51, 28463.34, 39471.48, 44296.37, 30833.96, 29463.31, 33889.49, 32303.97, 0.000, 0.000, 0.000, 17:13:29.811, 1560867209811
207, 29016.23, 28456.41, 39474.72, 44297.45, 30836.33, 29461.28, 33893.91, 32302.25, 0.010, 0.050, -1.036, 17:13:29.811, 1560867209811
208, 29040.95, 28488.04, 39518.64, 44339.29, 30878.35, 29489.39, 33940.47, 32337.81, 0.000, 0.000, 0.000, 17:13:29.811, 1560867209811
209, 29045.02, 28493.36, 39516.86, 44336.61, 30878.91, 29483.98, 33942.33, 32349.97, 0.000, 0.000, 0.000, 17:13:29.811, 1560867209811
210, 28999.51, 28438.75, 39447.61, 44266.76, 30814.47, 29418.13, 33870.67, 32294.16, 0.000, 0.000, 0.000, 17:13:29.812, 1560867209812
211, 28951.12, 28388.62, 39388.49, 44206.05, 30757.47, 29360.83, 33811.57, 32241.29, 0.000, 0.000, 0.000, 17:13:29.812, 1560867209812
212, 28949.40, 28393.71, 39401.83, 44223.21, 30771.29, 29371.02, 33828.29, 32252.16, 0.000, 0.000, 0.000, 17:13:29.812, 1560867209812
213, 28977.20, 28431.84, 39445.75, 44268.72, 30813.78, 29407.92, 33877.11, 32289.46, 0.000, 0.000, 0.000, 17:13:29.812, 1560867209812
214, 28992.36, 28442.79, 39454.20, 44281.35, 30821.38, 29405.87, 33885.87, 32296.35, 0.000, 0.000, 0.000, 17:13:29.812, 1560867209812
215, 28943.85, 28387.61, 39382.74, 44209.20, 30753.61, 29337.98, 33811.95, 32228.78, 0.000, 0.000, 0.000, 17:13:29.812, 1560867209812
216, 28902.97, 28342.23, 39340.16, 44157.88, 30712.28, 29299.78, 33769.33, 32197.53, 0.000, 0.000, 0.000, 17:13:29.812, 1560867209812
217, 28894.12, 28342.57, 39355.56, 44170.09, 30728.57, 29310.22, 33793.24, 32221.33, 0.008, 0.054, -1.038, 17:13:29.812, 1560867209812
218, 28912.63, 28366.20, 39399.48, 44212.44, 30774.06, 29349.47, 33843.65, 32262.48, 0.000, 0.000, 0.000, 17:13:29.813, 1560867209813
219, 28918.39, 28361.46, 39406.26, 44216.49, 30784.79, 29356.89, 33859.98, 32283.16, 0.000, 0.000, 0.000, 17:13:29.813, 1560867209813
220, 28871.32, 28304.01, 39341.89, 44149.25, 30721.35, 29297.62, 33789.38, 32225.43, 0.000, 0.000, 0.000, 17:13:29.813, 1560867209813
221, 28819.02, 28243.95, 39291.77, 44096.14, 30674.53, 29256.82, 33744.07, 32185.10, 0.000, 0.000, 0.000, 17:13:29.814, 1560867209814
222, 28782.23, 28213.87, 39293.40, 44098.70, 30682.22, 29260.98, 33763.29, 32196.97, 0.000, 0.000, 0.000, 17:13:29.814, 1560867209814
223, 28808.45, 28246.26, 39353.11, 44158.04, 30745.56, 29312.52, 33832.52, 32256.88, 0.000, 0.000, 0.000, 17:13:29.814, 1560867209814
224, 28814.26, 28244.87, 39360.41, 44163.56, 30755.02, 29323.30, 33841.95, 32270.24, 0.000, 0.000, 0.000, 17:13:29.814, 1560867209814
225, 28770.36, 28192.50, 39312.56, 44112.42, 30710.11, 29292.05, 33792.17, 32229.13, 0.000, 0.000, 0.000, 17:13:30.275, 1560867210275
226, 28716.83, 28129.47, 39266.38, 44062.02, 30665.16, 29259.55, 33744.67, 32186.71, 0.000, 0.000, 0.000, 17:13:30.276, 1560867210276
227, 28711.91, 28123.61, 39286.18, 44080.79, 30687.80, 29286.33, 33772.68, 32206.94, 0.008, 0.056, -1.028, 17:13:30.276, 1560867210276
228, 28750.60, 28171.33, 39357.53, 44154.48, 30760.04, 29359.48, 33850.51, 32272.36, 0.000, 0.000, 0.000, 17:13:30.276, 1560867210276
229, 28743.98, 28163.40, 39365.24, 44162.93, 30772.83, 29380.32, 33861.35, 32280.81, 0.000, 0.000, 0.000, 17:13:30.276, 1560867210276
230, 28716.47, 28125.13, 39327.42, 44124.15, 30737.69, 29357.03, 33817.47, 32244.13, 0.000, 0.000, 0.000, 17:13:30.276, 1560867210276
231, 28674.63, 28076.49, 39285.36, 44083.88, 30698.76, 29331.39, 33774.11, 32205.09, 0.000, 0.000, 0.000, 17:13:30.276, 1560867210276
232, 28690.47, 28092.77, 39321.55, 44117.89, 30732.69, 29379.20, 33812.55, 32232.27, 0.000, 0.000, 0.000, 17:13:30.277, 1560867210277
233, 28732.63, 28146.88, 39388.38, 44182.56, 30796.59, 29445.85, 33883.30, 32290.63, 0.000, 0.000, 0.000, 17:13:30.277, 1560867210277
234, 28750.62, 28166.84, 39410.75, 44206.21, 30822.05, 29467.89, 33902.01, 32308.66, 0.000, 0.000, 0.000, 17:13:30.277, 1560867210277
235, 28736.07, 28134.50, 39377.13, 44164.27, 30788.19, 29447.37, 33859.67, 32271.00, 0.000, 0.000, 0.000, 17:13:30.277, 1560867210277
236, 28695.95, 28083.76, 39322.93, 44112.44, 30735.53, 29407.65, 33808.64, 32227.44, 0.006, 0.052, -1.038, 17:13:30.277, 1560867210277
237, 28677.49, 28066.50, 39325.39, 44115.59, 30739.66, 29413.42, 33820.27, 32231.06, 0.000, 0.000, 0.000, 17:13:30.277, 1560867210277
238, 28698.14, 28106.18, 39370.38, 44160.63, 30785.71, 29450.75, 33871.86, 32270.17, 0.000, 0.000, 0.000, 17:13:30.277, 1560867210277
239, 28721.28, 28117.76, 39383.97, 44171.54, 30797.15, 29460.78, 33879.77, 32279.92, 0.000, 0.000, 0.000, 17:13:30.278, 1560867210278
240, 28687.59, 28060.45, 39323.29, 44104.33, 30735.64, 29399.34, 33805.83, 32217.20, 0.000, 0.000, 0.000, 17:13:30.278, 1560867210278
241, 28629.63, 27993.14, 39248.97, 44032.24, 30661.96, 29328.68, 33726.17, 32145.18, 0.000, 0.000, 0.000, 17:13:30.278, 1560867210278
242, 28623.38, 27993.62, 39253.60, 44039.44, 30661.92, 29322.34, 33731.93, 32151.60, 0.000, 0.000, 0.000, 17:13:30.278, 1560867210278
243, 28645.53, 28026.34, 39290.43, 44082.69, 30693.84, 29340.78, 33771.65, 32184.12, 0.000, 0.000, 0.000, 17:13:30.278, 1560867210278
244, 28659.36, 28039.17, 39296.40, 44089.69, 30698.29, 29338.74, 33778.54, 32186.76, 0.000, 0.000, 0.000, 17:13:30.278, 1560867210278
245, 28637.21, 27999.20, 39251.74, 44040.07, 30651.19, 29291.80, 33723.48, 32136.40, 0.000, 0.000, 0.000, 17:13:30.278, 1560867210278
246, 28596.51, 27952.60, 39196.38, 43982.75, 30593.12, 29237.89, 33666.04, 32085.12, 0.010, 0.048, -1.038, 17:13:30.282, 1560867210282
247, 28583.81, 27949.85, 39197.23, 43981.55, 30588.36, 29232.91, 33664.30, 32083.31, 0.000, 0.000, 0.000, 17:13:30.282, 1560867210282
248, 28617.50, 27994.46, 39247.74, 44032.82, 30632.37, 29271.20, 33711.97, 32120.80, 0.000, 0.000, 0.000, 17:13:30.282, 1560867210282
249, 28635.24, 28008.66, 39259.25, 44044.65, 30640.84, 29273.86, 33719.08, 32125.40, 0.000, 0.000, 0.000, 17:13:30.282, 1560867210282
250, 28610.63, 27970.53, 39212.80, 43996.82, 30593.30, 29224.61, 33665.37, 32077.50, 0.000, 0.000, 0.000, 17:13:30.282, 1560867210282
251, 28560.46, 27915.81, 39150.09, 43931.41, 30529.89, 29158.63, 33602.18, 32020.50, 0.000, 0.000, 0.000, 17:13:30.283, 1560867210283
252, 28547.78, 27911.52, 39150.62, 43932.31, 30527.32, 29151.52, 33603.93, 32020.28, 0.000, 0.000, 0.000, 17:13:30.283, 1560867210283
253, 28580.88, 27957.20, 39205.63, 43982.66, 30575.69, 29183.71, 33657.19, 32065.88, 0.000, 0.000, 0.000, 17:13:30.283, 1560867210283
254, 28592.48, 27968.33, 39211.35, 43990.82, 30578.06, 29176.58, 33657.66, 32065.28, 0.000, 0.000, 0.000, 17:13:30.283, 1560867210283
255, 28568.95, 27933.13, 39161.84, 43942.41, 30528.46, 29128.95, 33602.18, 32022.18, 0.000, 0.000, 0.000, 17:13:30.283, 1560867210283
0, 28531.15, 27893.70, 39111.57, 43888.57, 30476.54, 29074.99, 33548.67, 31979.06, 0.008, 0.046, -1.034, 17:13:30.283, 1560867210283
1, 28520.13, 27889.25, 39111.04, 43891.47, 30477.00, 29068.35, 33554.73, 31983.85, 0.000, 0.000, 0.000, 17:13:30.283, 1560867210283
2, 28552.63, 27931.70, 39165.42, 43949.36, 30533.73, 29112.14, 33616.66, 32039.26, 0.000, 0.000, 0.000, 17:13:30.284, 1560867210284
3, 28573.80, 27951.48, 39182.59, 43971.27, 30551.99, 29122.09, 33633.90, 32057.88, 0.000, 0.000, 0.000, 17:13:30.284, 1560867210284
4, 28552.34, 27915.65, 39137.43, 43928.26, 30508.21, 29077.52, 33585.37, 32018.72, 0.000, 0.000, 0.000, 17:13:30.284, 1560867210284
5, 28520.20, 27883.33, 39096.64, 43887.07, 30466.34, 29040.01, 33541.38, 31979.47, 0.000, 0.000, 0.000, 17:13:30.284, 1560867210284
6, 28505.80, 27876.98, 39095.05, 43884.09, 30462.28, 29031.05, 33539.93, 31972.43, 0.000, 0.000, 0.000, 17:13:30.284, 1560867210284
7, 28555.43, 27931.99, 39162.20, 43949.50, 30528.71, 29086.70, 33613.80, 32040.80, 0.000, 0.000, 0.000, 17:13:30.284, 1560867210284
8, 28569.46, 27944.13, 39173.40, 43959.64, 30538.67, 29096.47, 33625.38, 32050.90, 0.000, 0.000, 0.000, 17:13:30.284, 1560867210284
9, 28561.84, 27926.25, 39145.86, 43930.43, 30510.13, 29070.81, 33591.41, 32025.27, 0.000, 0.000, 0.000, 17:13:30.285, 1560867210285
10, 28539.02, 27901.64, 39116.29, 43898.45, 30478.50, 29041.49, 33556.32, 31994.29, 0.008, 0.052, -1.032, 17:13:30.285, 1560867210285
11, 28542.21, 27917.73, 39137.12, 43922.99, 30499.13, 29064.06, 33577.32, 32010.60, 0.000, 0.000, 0.000, 17:13:30.285, 1560867210285
12, 28556.32, 27943.95, 39170.27, 43957.14, 30531.30, 29094.68, 33612.98, 32039.71, 0.000, 0.000, 0.000, 17:13:30.286, 1560867210286
13, 28568.93, 27957.94, 39182.79, 43973.61, 30540.69, 29106.28, 33621.96, 32048.56, 0.000, 0.000, 0.000, 17:13:30.286, 1560867210286
14, 28555.40, 27934.61, 39150.38, 43942.43, 30508.37, 29083.15, 33586.71, 32020.13, 0.000, 0.000, 0.000, 17:13:30.286, 1560867210286
15, 28516.56, 27897.50, 39101.38, 43893.37, 30460.78, 29041.64, 33531.77, 31972.36, 0.000, 0.000, 0.000, 17:13:30.286, 1560867210286
16, 28516.15, 27907.52, 39115.26, 43905.11, 30472.78, 29055.84, 33543.66, 31983.54, 0.000, 0.000, 0.000, 17:13:30.286, 1560867210286
17, 28556.41, 27956.40, 39171.70, 43965.99, 30527.05, 29110.67, 33604.44, 32037.83, 0.000, 0.000, 0.000, 17:13:30.286, 1560867210286
18, 28558.80, 27960.67, 39171.05, 43965.66, 30524.81, 29113.24, 33605.24, 32042.54, 0.000, 0.000, 0.000, 17:13:30.286, 1560867210286
19, 28541.75, 27935.81, 39134.86, 43928.06, 30487.04, 29082.70, 33558.59, 32003.76, 0.000, 0.000, 0.000, 17:13:30.287, 1560867210287
20, 28512.62, 27906.51, 39094.27, 43883.98, 30445.96, 29049.55, 33515.72, 31961.23, 0.008, 0.048, -1.026, 17:13:30.287, 1560867210287
21, 28504.93, 27908.37, 39096.98, 43887.22, 30448.21, 29055.52, 33521.34, 31960.69, 0.000, 0.000, 0.000, 17:13:30.287, 1560867210287
22, 28539.96, 27952.26, 39148.48, 43942.93, 30499.13, 29104.65, 33576.07, 32003.41, 0.000, 0.000, 0.000, 17:13:30.287, 1560867210287
23, 28558.60, 27975.58, 39166.29, 43966.80, 30516.19, 29124.90, 33591.05, 32016.39, 0.000, 0.000, 0.000, 17:13:30.287, 1560867210287
24, 28521.65, 27931.25, 39111.04, 43910.20, 30463.86, 29079.08, 33529.58, 31962.90, 0.000, 0.000, 0.000, 17:13:30.289, 1560867210289
25, 28481.89, 27888.07, 39055.05, 43857.68, 30409.86, 29035.38, 33470.04, 31907.23, 0.000, 0.000, 0.000, 17:13:30.290, 1560867210290
26, 28488.62, 27902.38, 39068.16, 43872.56, 30422.80, 29052.71, 33483.61, 31917.04, 0.000, 0.000, 0.000, 17:13:30.291, 1560867210291
27, 28526.70, 27953.85, 39121.99, 43930.14, 30476.80, 29106.69, 33541.99, 31971.60, 0.000, 0.000, 0.000, 17:13:30.291, 1560867210291
28, 28542.30, 27974.37, 39136.99, 43949.12, 30495.24, 29127.36, 33558.28, 31989.10, 0.000, 0.000, 0.000, 17:13:30.291, 1560867210291
29, 28526.99, 27953.11, 39104.55, 43914.88, 30462.63, 29102.73, 33516.64, 31954.84, 0.000, 0.000, 0.000, 17:13:30.292, 1560867210292
30, 28484.75, 27903.29, 39051.11, 43858.21, 30407.76, 29054.05, 33456.89, 31900.16, 0.002, 0.046, -1.032, 17:13:30.292, 1560867210292
31, 28484.48, 27909.97, 39058.93, 43865.74, 30414.76, 29062.16, 33466.02, 31904.57, 0.000, 0.000, 0.000, 17:13:30.292, 1560867210292
32, 28512.24, 27946.47, 39103.66, 43913.11, 30457.04, 29100.21, 33511.70, 31942.05, 0.000, 0.000, 0.000, 17:13:30.292, 1560867210292
33, 28536.05, 27969.92, 39129.16, 43940.78, 30482.26, 29126.83, 33536.78, 31966.55, 0.000, 0.000, 0.000, 17:13:30.292, 1560867210292
34, 28524.51, 27947.12, 39097.27, 43914.11, 30451.99, 29104.88, 33499.43, 31938.56, 0.000, 0.000, 0.000, 17:13:30.293, 1560867210293
35, 28477.08, 27890.53, 39036.18, 43851.13, 30392.67, 29045.82, 33434.97, 31878.93, 0.000, 0.000, 0.000, 17:13:30.293, 1560867210293
36, 28478.02, 27895.00, 39045.72, 43859.69, 30400.56, 29049.04, 33445.54, 31883.31, 0.000, 0.000, 0.000, 17:13:30.293, 1560867210293
37, 28510.70, 27927.25, 39095.39, 43907.39, 30449.09, 29088.02, 33496.77, 31925.49, 0.000, 0.000, 0.000, 17:13:30.294, 1560867210294
38, 28541.03, 27948.06, 39124.96, 43937.00, 30478.93, 29114.69, 33526.12, 31953.99, 0.000, 0.000, 0.000, 17:13:30.294, 1560867210294
39, 28531.58, 27925.84, 39093.82, 43908.97, 30447.75, 29086.73, 33489.71, 31927.23, 0.000, 0.000, 0.000, 17:13:30.295, 1560867210295
