%OpenBCI Raw EEG Data
%Number of channels = 8
%Sample Rate = 250.0 Hz
%First Column = SampleIndex
%Last Column = Timestamp 
%Other Columns = EEG data in microvolts followed by Accel Data (in G) interleaved with Aux Data
53, 47558.27, 170517.70, 143629.31, 147122.00, 148134.89, 148517.97, 154486.16, 161722.91, 3.693, 3.727, 3.374, 10:14:14.591, 1561533254591
79, 164642.91, 97064.70, 47368.24, 47156.59, 47443.81, 142721.73, 148567.50, 15102.94, 1.032, 3.564, 3.661, 10:14:23.684, 1561533263684
32, 145598.19, 107324.00, 47152.34, 75102.15, 15084.95, 121875.38, 105653.38, 148626.78, 3.181, 1.033, 2.183, 10:14:23.685, 1561533263685
0, -3701.94, 5219.44, 14731.81, 12287.00, -5205.03, 837.56, -12828.60, -11096.88, 0.008, -0.024, -0.518, 10:14:23.745, 1561533263745
1, -3754.87, 5191.24, 14730.49, 12107.25, -5308.18, 661.03, -12719.73, -11124.60, 0.000, 0.000, 0.000, 10:14:23.745, 1561533263745
2, -3770.65, 5252.91, 14801.73, 12015.09, -5359.30, 416.68, -12568.07, -11149.05, 0.000, 0.000, 0.000, 10:14:23.745, 1561533263745
3, -3706.05, 5285.23, 14874.62, 12099.98, -5308.96, 374.59, -12511.92, -11135.86, 0.000, 0.000, 0.000, 10:14:23.745, 1561533263745
4, -3675.79, 5270.76, 14871.87, 12161.83, -5287.80, 370.39, -12597.33, -11136.78, 0.000, 0.000, 0.000, 10:14:23.745, 1561533263745
5, -3647.80, 5306.44, 14865.68, 12115.00, -5250.36, 311.76, -12635.08, -11127.26, 0.000, 0.000, 0.000, 10:14:23.745, 1561533263745
6, -3702.34, 5329.08, 14872.51, 11911.00, -5301.10, 139.41, -12633.67, -11189.93, 0.000, 0.000, 0.000, 10:14:23.745, 1561533263745
7, -3758.40, 5332.10, 14852.20, 11865.42, -5426.47, -35.67, -12627.35, -11269.12, 0.006, -0.028, -0.772, 10:14:23.745, 1561533263745
8, -3726.91, 5306.04, 14825.24, 11928.59, -5384.98, -190.50, -12595.30, -11271.81, 0.000, 0.000, 0.000, 10:14:23.746, 1561533263746
9, -3690.65, 5330.02, 14843.93, 12065.47, -5355.68, 222.94, -12603.68, -11268.48, 0.000, 0.000, 0.000, 10:14:23.746, 1561533263746
10, -3662.98, 5333.55, 14848.87, 12161.94, -5336.68, 749.10, -12628.40, -11292.01, 0.000, 0.000, 0.000, 10:14:23.746, 1561533263746
11, -3736.61, 5319.63, 14863.66, 12034.80, -5373.23, 1452.77, -12714.43, -11364.21, 0.000, 0.000, 0.000, 10:14:23.746, 1561533263746
12, -3774.74, 5333.04, 14816.01, 11906.15, -5481.79, 1708.84, -12805.09, -11440.00, 0.000, 0.000, 0.000, 10:14:23.746, 1561533263746
13, -3722.37, 5328.14, 14756.42, 11794.34, -5391.71, 1748.93, -12773.22, -11469.66, 0.000, 0.000, 0.000, 10:14:23.746, 1561533263746
14, -3707.86, 5328.39, 14760.62, 11716.69, -5299.46, 1537.29, -12817.27, -11519.80, 0.000, 0.000, 0.000, 10:14:23.746, 1561533263746
15, -3702.79, 5269.60, 14687.69, 11792.91, -5307.87, 1588.16, -12873.75, -11563.54, 0.000, 0.000, 0.000, 10:14:23.805, 1561533263805
16, -3757.69, 5292.40, 14681.94, 11971.62, -5349.76, 1388.22, -12905.14, -11607.69, 0.000, 0.000, 0.000, 10:14:23.806, 1561533263806
17, -3748.25, 5357.11, 14740.59, 12085.86, -5376.40, 970.58, -12929.90, -11640.77, 0.008, -0.034, -0.900, 10:14:23.806, 1561533263806
18, -3729.32, 5395.33, 14737.69, 12046.56, -5341.91, 923.93, -12877.93, -11611.69, 0.000, 0.000, 0.000, 10:14:23.806, 1561533263806
19, -3728.76, 5436.03, 14719.38, 11910.24, -5301.07, 1075.59, -12797.69, -11599.39, 0.000, 0.000, 0.000, 10:14:23.806, 1561533263806
20, -3707.48, 5425.86, 14649.47, 11994.50, -5259.19, 1116.78, -12762.38, -11581.40, 0.000, 0.000, 0.000, 10:14:23.806, 1561533263806
21, -3762.98, 5405.41, 14562.83, 12046.99, -5300.34, 722.81, -12779.25, -11597.74, 0.000, 0.000, 0.000, 10:14:23.806, 1561533263806
22, -3771.83, 5452.42, 14571.10, 12007.71, -5350.76, 282.77, -12795.01, -11628.07, 0.000, 0.000, 0.000, 10:14:23.806, 1561533263806
23, -3718.86, 5413.50, 14604.56, 11982.12, -5331.11, 75.10, -12784.79, -11614.50, 0.000, 0.000, 0.000, 10:14:23.806, 1561533263806
24, -3705.41, 5406.35, 14667.10, 12093.88, -5287.22, -136.95, -12825.74, -11627.42, 0.000, 0.000, 0.000, 10:14:23.806, 1561533263806
25, -3700.55, 5374.01, 14652.53, 12287.47, -5264.71, 13.90, -12844.18, -11622.97, 0.000, 0.000, 0.000, 10:14:23.806, 1561533263806
26, -3787.17, 5333.51, 14561.40, 12153.11, -5311.69, -30.53, -12929.41, -11669.40, 0.014, -0.040, -0.962, 10:14:23.806, 1561533263806
27, -3820.38, 5405.23, 14598.93, 12197.41, -5334.11, -73.96, -13017.81, -11739.96, 0.000, 0.000, 0.000, 10:14:23.806, 1561533263806
28, -3789.58, 5433.22, 14601.97, 12238.09, -5285.61, 148.59, -13024.41, -11770.63, 0.000, 0.000, 0.000, 10:14:23.806, 1561533263806
29, -3769.29, 5378.68, 14548.84, 12252.76, -5241.86, 5.32, -13057.64, -11805.12, 0.000, 0.000, 0.000, 10:14:23.807, 1561533263807
30, -3731.80, 5368.91, 14540.73, 12286.44, -5150.51, 256.73, -13003.24, -11799.35, 0.000, 0.000, 0.000, 10:14:23.865, 1561533263865
31, -3778.65, 5310.17, 14514.57, 12118.06, -5177.31, 119.63, -13017.77, -11839.29, 0.000, 0.000, 0.000, 10:14:23.865, 1561533263865
32, -3817.30, 5302.08, 14519.87, 11924.90, -5241.86, 1.92, -13081.51, -11926.20, 0.000, 0.000, 0.000, 10:14:23.865, 1561533263865
33, -3785.25, 5314.57, 14507.94, 11882.50, -5245.71, -3.17, -13087.46, -11952.57, 0.000, 0.000, 0.000, 10:14:23.866, 1561533263866
34, -3745.41, 5310.86, 14462.67, 11774.14, -5236.03, -35.72, -13082.05, -11979.84, 0.000, 0.000, 0.000, 10:14:23.866, 1561533263866
35, -3721.61, 5269.78, 14474.97, 11834.60, -5113.05, 148.48, -13072.62, -11965.76, 0.000, 0.000, 0.000, 10:14:23.866, 1561533263866
36, -3774.09, 5226.98, 14466.81, 11947.25, -5204.80, 264.67, -13126.89, -12033.13, -0.010, -0.062, -0.996, 10:14:23.866, 1561533263866
37, -3792.87, 5240.12, 14461.76, 11992.58, -5358.79, 63.01, -13201.12, -12126.71, 0.000, 0.000, 0.000, 10:14:23.866, 1561533263866
38, -3733.12, 5244.81, 14521.26, 12074.99, -5255.72, 147.63, -13190.93, -12132.33, 0.000, 0.000, 0.000, 10:14:23.866, 1561533263866
39, -3725.39, 5256.95, 14521.95, 12077.63, -5231.22, 316.66, -13255.41, -12195.13, 0.000, 0.000, 0.000, 10:14:23.866, 1561533263866
40, -3682.43, 5195.71, 14577.52, 12084.38, -5271.55, 597.57, -13322.94, -12266.08, 0.000, 0.000, 0.000, 10:14:23.866, 1561533263866
41, -3699.01, 5255.54, 14671.33, 12045.60, -5272.08, 827.39, -13355.26, -12329.80, 0.000, 0.000, 0.000, 10:14:23.866, 1561533263866
42, -3689.65, 5331.56, 14676.87, 11899.00, -5267.19, 690.20, -13393.61, -12359.55, 0.000, 0.000, 0.000, 10:14:23.866, 1561533263866
43, -3621.03, 5337.55, 14669.58, 12072.76, -5219.53, 891.45, -13391.42, -12354.73, 0.000, 0.000, 0.000, 10:14:23.866, 1561533263866
44, -3604.04, 5296.60, 14640.86, 12205.59, -5154.40, 1137.35, -13329.84, -12336.42, 0.000, 0.000, 0.000, 10:14:23.866, 1561533263866
45, -3621.23, 5231.27, 14596.05, 12274.39, -5084.11, 1282.12, -13324.46, -12299.07, 0.000, 0.000, 0.000, 10:14:23.926, 1561533263926
46, -3667.63, 5240.14, 14586.88, 12273.54, -5095.73, 1318.95, -13375.98, -12303.63, -0.008, -0.056, -1.002, 10:14:23.926, 1561533263926
47, -3678.36, 5347.81, 14581.25, 12198.98, -5136.36, 1106.48, -13454.12, -12328.75, 0.000, 0.000, 0.000, 10:14:23.926, 1561533263926
48, -3637.93, 5315.87, 14546.58, 12239.01, -5121.66, 1018.66, -13499.56, -12305.13, 0.000, 0.000, 0.000, 10:14:23.926, 1561533263926
49, -3656.83, 5345.55, 14510.68, 12249.96, -5157.49, 909.13, -13498.44, -12349.36, 0.000, 0.000, 0.000, 10:14:23.927, 1561533263927
50, -3618.43, 5383.51, 14501.39, 12271.17, -5130.31, 848.58, -13441.42, -12416.15, 0.000, 0.000, 0.000, 10:14:23.927, 1561533263927
51, -3622.90, 5275.01, 14457.42, 12205.57, -5139.45, 790.63, -13482.42, -12484.83, 0.000, 0.000, 0.000, 10:14:23.927, 1561533263927
52, -3698.25, 5270.54, 14382.52, 12145.24, -5299.42, 562.84, -13482.44, -12506.16, 0.000, 0.000, 0.000, 10:14:23.927, 1561533263927
53, -3677.76, 5336.50, 14414.13, 12269.05, -5227.47, 513.02, -13273.00, -12476.27, 0.000, 0.000, 0.000, 10:14:23.927, 1561533263927
54, -3636.32, 5383.04, 14428.97, 12304.32, -5193.09, 490.69, -13176.40, -12508.86, 0.000, 0.000, 0.000, 10:14:23.927, 1561533263927
55, -3588.97, 5415.47, 14378.52, 12254.25, -5229.15, 530.16, -13250.69, -12622.52, 0.000, 0.000, 0.000, 10:14:23.927, 1561533263927
56, -3640.23, 5261.91, 14393.76, 12180.40, -5243.72, 403.00, -13227.78, -12698.14, 0.008, -0.046, -1.018, 10:14:23.927, 1561533263927
57, -3644.70, 5414.35, 14402.97, 12054.14, -5291.78, 176.09, -13113.59, -12725.21, 0.000, 0.000, 0.000, 10:14:23.927, 1561533263927
58, -3586.02, 5371.48, 14368.13, 12154.88, -5384.80, 212.92, -13132.66, -12712.38, 0.000, 0.000, 0.000, 10:14:23.927, 1561533263927
59, -3577.64, 5271.23, 14422.04, 12141.76, -5363.73, 363.77, -13138.74, -12758.87, 0.000, 0.000, 0.000, 10:14:23.927, 1561533263927
60, -3603.86, 5181.85, 14483.35, 12278.15, -5200.07, 693.89, -13043.83, -12763.61, 0.000, 0.000, 0.000, 10:14:23.985, 1561533263985
61, -3663.18, 5306.91, 14451.65, 12219.03, -5307.35, 764.27, -13036.50, -12827.62, 0.000, 0.000, 0.000, 10:14:23.986, 1561533263986
62, -3610.90, 5513.48, 14401.61, 12119.92, -5491.29, 758.60, -13019.76, -12871.16, 0.000, 0.000, 0.000, 10:14:23.986, 1561533263986
63, -3575.70, 5529.44, 14467.90, 12155.08, -5481.59, 960.66, -12952.88, -12836.11, 0.000, 0.000, 0.000, 10:14:23.986, 1561533263986
64, -3654.26, 5154.07, 14538.54, 12323.12, -5434.76, 1194.95, -12855.00, -12794.94, 0.000, 0.000, 0.000, 10:14:23.986, 1561533263986
65, -3671.72, 5114.37, 14592.96, 12361.32, -5340.52, 1478.37, -12792.57, -12740.18, 0.000, 0.000, 0.000, 10:14:23.986, 1561533263986
66, -3746.24, 5024.20, 14597.23, 12359.31, -5435.70, 1476.98, -12800.87, -12707.15, 0.010, -0.038, -1.036, 10:14:23.986, 1561533263986
67, -3789.11, 5232.23, 14537.78, 12314.25, -5519.74, 1183.41, -12789.04, -12638.70, 0.000, 0.000, 0.000, 10:14:23.986, 1561533263986
68, -3735.31, 5322.93, 14515.47, 12446.28, -5449.96, 1080.77, -12682.45, -12502.27, 0.000, 0.000, 0.000, 10:14:23.986, 1561533263986
69, -3705.16, 5304.49, 14487.24, 12526.54, -5484.49, 1306.03, -12613.76, -12411.28, 0.000, 0.000, 0.000, 10:14:23.986, 1561533263986
70, -3678.02, 5337.78, 14465.40, 12477.21, -5437.35, 1491.53, -12561.59, -12305.69, 0.000, 0.000, 0.000, 10:14:23.986, 1561533263986
71, -3758.24, 5175.41, 14431.78, 12427.17, -5506.96, 1360.62, -12496.44, -12266.88, 0.000, 0.000, 0.000, 10:14:23.986, 1561533263986
72, -3892.58, 5092.44, 14428.10, 12421.22, -5569.65, 1284.60, -12464.65, -12268.65, 0.000, 0.000, 0.000, 10:14:23.986, 1561533263986
73, -3873.04, 5299.73, 14425.32, 12378.91, -5633.02, 1452.84, -12496.46, -12234.14, 0.000, 0.000, 0.000, 10:14:23.986, 1561533263986
74, -3798.30, 5236.75, 14520.03, 12621.60, -5624.46, 1746.19, -12493.66, -12175.46, 0.000, 0.000, 0.000, 10:14:23.986, 1561533263986
75, -3806.08, 4949.26, 14585.43, 12843.11, -5584.99, 2076.79, -12505.60, -12159.15, 0.000, 0.000, 0.000, 10:14:24.044, 1561533264044
76, -3914.53, 4917.85, 14565.96, 12678.09, -5605.39, 2282.72, -12585.35, -12161.54, 0.012, -0.030, -1.042, 10:14:24.044, 1561533264044
77, -3969.69, 4894.65, 14511.36, 12533.34, -5747.82, 2288.77, -12747.85, -12222.09, 0.000, 0.000, 0.000, 10:14:24.044, 1561533264044
78, -3934.15, 4896.84, 14484.13, 12617.72, -5708.72, 2449.39, -12833.14, -12200.07, 0.000, 0.000, 0.000, 10:14:24.044, 1561533264044
79, -3956.39, 4978.45, 14594.03, 12569.46, -5684.03, 2285.31, -12855.96, -12151.57, 0.000, 0.000, 0.000, 10:14:24.045, 1561533264045
80, -3940.68, 4865.08, 14667.42, 12557.66, -5686.17, 1916.26, -12880.88, -12144.02, 0.000, 0.000, 0.000, 10:14:24.045, 1561533264045
81, -3933.71, 4996.75, 14666.34, 12589.58, -5727.97, 1787.49, -12947.43, -12156.58, 0.000, 0.000, 0.000, 10:14:24.045, 1561533264045
82, -3996.27, 4967.07, 14731.72, 12686.47, -5765.41, 1628.50, -13060.75, -12187.56, 0.000, 0.000, 0.000, 10:14:24.045, 1561533264045
83, -4015.89, 4854.15, 14715.20, 12765.77, -5810.25, 1525.93, -13172.98, -12268.56, 0.000, 0.000, 0.000, 10:14:24.045, 1561533264045
84, -3939.87, 4959.83, 14680.83, 12671.78, -5702.00, 1660.71, -13185.34, -12302.82, 0.000, 0.000, 0.000, 10:14:24.045, 1561533264045
85, -3886.03, 5038.95, 14596.87, 12696.82, -5714.96, 1966.42, -13259.37, -12335.75, 0.000, 0.000, 0.000, 10:14:24.045, 1561533264045
86, -3957.00, 4855.22, 14641.78, 12865.37, -5686.02, 1818.11, -13322.11, -12361.59, 0.006, -0.046, -1.036, 10:14:24.045, 1561533264045
87, -3984.04, 4859.90, 14468.22, 12651.67, -5828.55, 1332.34, -13367.62, -12398.89, 0.000, 0.000, 0.000, 10:14:24.045, 1561533264045
88, -3989.54, 4937.23, 14496.87, 12650.08, -5804.52, 1388.78, -13338.94, -12343.62, 0.000, 0.000, 0.000, 10:14:24.045, 1561533264045
89, -3983.13, 4926.77, 14548.55, 12934.02, -5795.38, 1624.26, -13344.17, -12322.11, 0.000, 0.000, 0.000, 10:14:24.045, 1561533264045
90, -3868.39, 4954.26, 14621.93, 12886.74, -5738.90, 1620.19, -13345.80, -12289.70, 0.000, 0.000, 0.000, 10:14:24.105, 1561533264105
91, -3920.05, 4913.83, 14616.65, 12577.53, -5782.19, 1132.00, -13382.59, -12285.48, 0.000, 0.000, 0.000, 10:14:24.105, 1561533264105
92, -3977.69, 4917.58, 14591.93, 12249.85, -5856.98, 403.67, -13438.74, -12298.29, 0.000, 0.000, 0.000, 10:14:24.105, 1561533264105
93, -3893.36, 5039.04, 14683.73, 11962.09, -5803.38, 50.20, -13400.65, -12251.01, 0.000, 0.000, 0.000, 10:14:24.105, 1561533264105
94, -3809.52, 5128.27, 14902.62, 12140.15, -5680.85, 601.28, -13329.89, -12216.28, 0.000, 0.000, 0.000, 10:14:24.105, 1561533264105
95, -3804.89, 5161.60, 14814.38, 12341.72, -5669.50, 1482.66, -13301.99, -12211.90, 0.000, 0.000, 0.000, 10:14:24.105, 1561533264105
96, -3881.85, 5071.97, 14704.99, 12330.18, -5758.50, 2209.72, -13327.70, -12244.71, 0.018, -0.050, -1.032, 10:14:24.105, 1561533264105
97, -3923.04, 5116.45, 14738.25, 12475.11, -5803.12, 2370.02, -13344.08, -12264.87, 0.000, 0.000, 0.000, 10:14:24.105, 1561533264105
98, -3813.30, 5154.07, 14748.11, 12492.34, -5753.81, 2531.89, -13282.17, -12200.19, 0.000, 0.000, 0.000, 10:14:24.105, 1561533264105
99, -3787.50, 5209.65, 14812.30, 12768.72, -5679.31, 2105.13, -13216.03, -12133.73, 0.000, 0.000, 0.000, 10:14:24.105, 1561533264105
100, -3760.26, 5144.99, 14827.81, 12678.96, -5639.99, 1926.54, -13178.45, -12074.79, 0.000, 0.000, 0.000, 10:14:24.106, 1561533264106
101, -3743.05, 5144.54, 14787.31, 12637.30, -5670.03, 1914.16, -13194.06, -12043.34, 0.000, 0.000, 0.000, 10:14:24.106, 1561533264106
102, -3810.77, 5131.38, 14761.34, 13291.42, -5720.12, 1706.73, -13255.12, -12054.38, 0.000, 0.000, 0.000, 10:14:24.106, 1561533264106
103, -3792.51, 5144.46, 14702.55, 13451.86, -5706.42, 1775.20, -13240.52, -12040.24, 0.000, 0.000, 0.000, 10:14:24.106, 1561533264106
104, -3755.85, 5193.29, 14651.41, 13197.99, -5679.35, 1842.14, -13209.77, -11990.73, 0.000, 0.000, 0.000, 10:14:24.106, 1561533264106
105, -3716.42, 5270.41, 14658.18, 12876.97, -5618.38, 2358.89, -13188.42, -11935.52, 0.000, 0.000, 0.000, 10:14:24.165, 1561533264165
106, -3738.60, 5272.42, 14635.63, 12789.47, -5660.67, 2992.65, -13197.03, -11935.38, 0.014, -0.052, -1.032, 10:14:24.165, 1561533264165
107, -3744.90, 5289.85, 14688.47, 12882.09, -5709.44, 2670.21, -13216.14, -11951.75, 0.000, 0.000, 0.000, 10:14:24.166, 1561533264166
108, -3725.25, 5184.78, 14644.28, 12696.21, -5684.63, 2604.22, -13190.12, -11935.00, 0.000, 0.000, 0.000, 10:14:24.166, 1561533264166
109, -3705.58, 5182.16, 14661.60, 12796.22, -5668.65, 2498.28, -13176.11, -11926.13, 0.000, 0.000, 0.000, 10:14:24.166, 1561533264166
110, -3695.39, 5173.56, 14611.69, 12687.21, -5621.66, 2524.72, -13141.19, -11902.13, 0.000, 0.000, 0.000, 10:14:24.166, 1561533264166
111, -3742.13, 5106.10, 14592.65, 12678.58, -5656.27, 2224.47, -13158.58, -11921.84, 0.000, 0.000, 0.000, 10:14:24.166, 1561533264166
112, -3793.52, 5144.30, 14616.10, 12538.46, -5730.34, 1816.84, -13214.17, -11942.47, 0.000, 0.000, 0.000, 10:14:24.166, 1561533264166
113, -3684.48, 5205.30, 14677.41, 12410.58, -5701.42, 1738.34, -13212.58, -11925.19, 0.000, 0.000, 0.000, 10:14:24.166, 1561533264166
114, -3710.57, 5197.41, 14684.74, 12233.87, -5664.24, 2028.24, -13195.55, -11886.99, 0.000, 0.000, 0.000, 10:14:24.166, 1561533264166
115, -3740.14, 5179.08, 14674.90, 12062.74, -5643.66, 2053.05, -13190.30, -11840.39, 0.000, 0.000, 0.000, 10:14:24.166, 1561533264166
116, -3757.17, 5214.24, 14595.22, 11895.22, -5682.86, 1861.94, -13220.92, -11833.46, 0.016, -0.054, -1.032, 10:14:24.166, 1561533264166
117, -3810.39, 5288.22, 14559.55, 11901.48, -5738.03, 1770.17, -13272.35, -11879.01, 0.000, 0.000, 0.000, 10:14:24.166, 1561533264166
118, -3751.34, 5273.09, 14561.38, 11965.96, -5708.79, 1962.10, -13267.12, -11846.27, 0.000, 0.000, 0.000, 10:14:24.166, 1561533264166
119, -3739.45, 5124.45, 14569.83, 12082.97, -5679.89, 1943.77, -13252.13, -11809.86, 0.000, 0.000, 0.000, 10:14:24.166, 1561533264166
120, -3762.04, 5123.76, 14628.46, 12203.05, -5637.49, 1762.64, -13224.16, -11806.39, 0.000, 0.000, 0.000, 10:14:24.225, 1561533264225
121, -3812.89, 5097.78, 14606.73, 12307.94, -5659.33, 1475.01, -13219.42, -11814.57, 0.000, 0.000, 0.000, 10:14:24.226, 1561533264226
122, -3843.14, 5094.25, 14608.29, 12257.67, -5727.10, 1067.92, -13262.79, -11856.84, 0.000, 0.000, 0.000, 10:14:24.226, 1561533264226
123, -3825.52, 5107.22, 14573.25, 12233.09, -5704.66, 680.07, -13252.39, -11869.29, 0.000, 0.000, 0.000, 10:14:24.226, 1561533264226
124, -3809.21, 5162.54, 14602.95, 12277.28, -5667.24, 920.60, -13213.52, -11841.62, 0.000, 0.000, 0.000, 10:14:24.226, 1561533264226
125, -3774.45, 5123.73, 14622.15, 12412.12, -5625.80, 1309.30, -13165.85, -11824.72, 0.000, 0.000, 0.000, 10:14:24.226, 1561533264226
126, -3830.66, 5096.38, 14601.28, 12297.24, -5665.81, 1348.10, -13173.38, -11845.46, 0.016, -0.046, -1.030, 10:14:24.226, 1561533264226
127, -3875.70, 5213.63, 14529.17, 12059.95, -5708.05, 1641.71, -13230.24, -11843.70, 0.000, 0.000, 0.000, 10:14:24.226, 1561533264226
128, -3854.38, 5183.30, 14512.67, 11996.43, -5663.98, 1901.89, -13231.38, -11768.89, 0.000, 0.000, 0.000, 10:14:24.226, 1561533264226
129, -3856.93, 5123.31, 14536.95, 11998.64, -5605.66, 1791.85, -13222.67, -11686.23, 0.000, 0.000, 0.000, 10:14:24.226, 1561533264226
130, -3856.32, 5067.77, 14504.52, 11981.54, -5544.10, 1697.88, -13218.33, -11581.38, 0.000, 0.000, 0.000, 10:14:24.226, 1561533264226
131, -3911.60, 4978.52, 14509.86, 11764.68, -5516.46, 1549.71, -13230.49, -11483.07, 0.000, 0.000, 0.000, 10:14:24.226, 1561533264226
132, -3950.67, 5060.14, 14439.29, 11604.49, -5535.95, 1449.04, -13290.44, -11429.56, 0.000, 0.000, 0.000, 10:14:24.226, 1561533264226
133, -3917.75, 5091.28, 14454.67, 11609.63, -5436.48, 1309.86, -13280.60, -11354.62, 0.000, 0.000, 0.000, 10:14:24.226, 1561533264226
134, -3915.51, 4970.96, 14465.85, 11712.98, -5313.08, 1303.13, -13231.14, -11291.39, 0.000, 0.000, 0.000, 10:14:24.226, 1561533264226
135, -3907.15, 4897.33, 14438.40, 11848.75, -5228.97, 1356.84, -13198.10, -11261.34, 0.008, -0.044, -1.030, 10:14:24.226, 1561533264226
136, -3965.62, 4864.61, 14338.31, 11863.77, -5207.11, 1220.47, -13215.04, -11299.83, 0.000, 0.000, 0.000, 10:14:24.286, 1561533264286
137, -4040.06, 4841.59, 14213.74, 11888.69, -5209.34, 1237.15, -13230.60, -11308.51, 0.000, 0.000, 0.000, 10:14:24.286, 1561533264286
138, -4029.55, 4896.15, 14172.88, 11862.43, -5161.33, 1486.48, -13193.43, -11285.04, 0.000, 0.000, 0.000, 10:14:24.286, 1561533264286
139, -4006.48, 4924.27, 14188.73, 11742.20, -5138.11, 1862.19, -13176.51, -11240.27, 0.000, 0.000, 0.000, 10:14:24.286, 1561533264286
140, -4002.97, 4834.39, 14077.26, 11605.05, -5127.22, 1874.89, -13107.04, -11213.91, 0.000, 0.000, 0.000, 10:14:24.286, 1561533264286
141, -4065.92, 4806.88, 13883.03, 11392.04, -5160.03, 1378.61, -13027.62, -11176.81, 0.000, 0.000, 0.000, 10:14:24.286, 1561533264286
142, -4127.94, 4869.86, 13997.47, 11569.37, -5222.62, 919.13, -12982.94, -11142.41, 0.000, 0.000, 0.000, 10:14:24.286, 1561533264286
143, -4092.07, 4831.80, 14074.54, 11721.08, -5208.34, 1113.63, -12930.30, -11090.09, 0.000, 0.000, 0.000, 10:14:24.287, 1561533264287
144, -4020.43, 4808.49, 14122.23, 11474.20, -5166.00, 1392.25, -12866.02, -11053.43, 0.000, 0.000, 0.000, 10:14:24.287, 1561533264287
145, -4007.49, 4735.40, 14153.59, 11547.13, -5131.22, 1759.37, -12842.28, -11063.24, 0.002, -0.042, -1.032, 10:14:24.287, 1561533264287
146, -4132.66, 4749.54, 14182.76, 11667.48, -5168.73, 1993.75, -12858.65, -11163.33, 0.000, 0.000, 0.000, 10:14:24.287, 1561533264287
147, -4169.61, 4811.86, 14186.29, 11722.01, -5223.40, 1696.25, -12837.92, -11233.36, 0.000, 0.000, 0.000, 10:14:24.287, 1561533264287
148, -4106.40, 4850.64, 14202.21, 11896.74, -5211.51, 1516.90, -12787.81, -11276.39, 0.000, 0.000, 0.000, 10:14:24.287, 1561533264287
149, -4094.82, 4866.06, 14188.51, 11899.93, -5209.19, 1461.60, -12709.85, -11347.64, 0.000, 0.000, 0.000, 10:14:24.287, 1561533264287
150, -4060.40, 4843.53, 14194.07, 11865.24, -5186.10, 1220.67, -12673.64, -11386.36, 0.000, 0.000, 0.000, 10:14:24.287, 1561533264287
151, -4088.87, 4751.67, 14194.09, 11815.09, -5211.85, 1196.02, -12703.23, -11465.48, 0.000, 0.000, 0.000, 10:14:24.345, 1561533264345
152, -4131.74, 4746.10, 14178.45, 11719.04, -5270.34, 950.04, -12677.28, -11542.80, 0.000, 0.000, 0.000, 10:14:24.345, 1561533264345
153, -4104.14, 4750.44, 14192.60, 11620.87, -5262.09, 795.97, -12648.16, -11613.99, 0.000, 0.000, 0.000, 10:14:24.345, 1561533264345
154, -4074.43, 4813.58, 14125.83, 11833.75, -5253.08, 586.93, -12650.26, -11686.99, 0.000, 0.000, 0.000, 10:14:24.345, 1561533264345
155, -4043.81, 4667.00, 14096.06, 12110.82, -5234.26, 563.49, -12648.05, -11677.31, 0.012, -0.050, -1.040, 10:14:24.345, 1561533264345
156, -4106.48, 4653.25, 14176.24, 12278.17, -5285.85, 67.23, -12787.79, -11666.27, 0.000, 0.000, 0.000, 10:14:24.346, 1561533264346
157, -4110.20, 4776.63, 14226.68, 12098.62, -5342.65, -316.93, -12885.15, -11653.42, 0.000, 0.000, 0.000, 10:14:24.346, 1561533264346
158, -4049.89, 4801.67, 14246.11, 11966.18, -5356.37, 409.13, -12913.50, -11673.44, 0.000, 0.000, 0.000, 10:14:24.346, 1561533264346
159, -4031.70, 4677.95, 14163.72, 11981.85, -5374.39, 641.14, -12985.16, -11720.94, 0.000, 0.000, 0.000, 10:14:24.346, 1561533264346
160, -4049.78, 4676.77, 14135.15, 12015.25, -5375.73, 165.47, -12996.56, -11712.69, 0.000, 0.000, 0.000, 10:14:24.346, 1561533264346
161, -4080.85, 4657.72, 14044.16, 12013.64, -5408.41, -347.10, -13028.16, -11729.46, 0.000, 0.000, 0.000, 10:14:24.346, 1561533264346
162, -4203.74, 4539.44, 14035.38, 11977.94, -5446.76, -897.38, -13150.58, -11742.40, 0.000, 0.000, 0.000, 10:14:24.346, 1561533264346
163, -4167.01, 4553.63, 14053.55, 11975.55, -5414.04, -1242.96, -13210.13, -11746.20, 0.000, 0.000, 0.000, 10:14:24.346, 1561533264346
164, -4112.21, 4595.63, 14032.60, 11864.69, -5370.03, -1176.51, -13154.27, -11738.29, 0.000, 0.000, 0.000, 10:14:24.346, 1561533264346
165, -4071.82, 4592.59, 13998.20, 11663.09, -5342.11, -923.33, -13094.19, -11744.92, 0.030, -0.030, -1.010, 10:14:24.346, 1561533264346
166, -4121.26, 4586.53, 13932.62, 11565.44, -5365.47, -979.01, -13056.21, -11772.57, 0.000, 0.000, 0.000, 10:14:24.406, 1561533264406
167, -4166.07, 4666.06, 13949.14, 11472.17, -5416.03, -1154.51, -13020.02, -11820.29, 0.000, 0.000, 0.000, 10:14:24.406, 1561533264406
168, -4103.22, 4564.83, 14032.60, 11628.36, -5389.39, -1045.99, -12957.66, -11814.48, 0.000, 0.000, 0.000, 10:14:24.406, 1561533264406
169, -4078.79, 4545.32, 14045.81, 11813.14, -5387.33, -990.14, -12939.25, -11766.14, 0.000, 0.000, 0.000, 10:14:24.406, 1561533264406
170, -4082.41, 4592.34, 13955.71, 11891.08, -5408.67, -715.61, -12938.91, -11712.78, 0.000, 0.000, 0.000, 10:14:24.406, 1561533264406
171, -4135.16, 4543.86, 13935.84, 11945.33, -5472.76, -683.45, -12986.74, -11691.37, 0.000, 0.000, 0.000, 10:14:24.406, 1561533264406
172, -4199.36, 4577.06, 13956.16, 11935.52, -5553.38, -812.84, -13056.57, -11685.40, 0.000, 0.000, 0.000, 10:14:24.406, 1561533264406
173, -4130.27, 4697.89, 14034.84, 12036.48, -5556.51, -733.18, -13006.81, -11635.51, 0.000, 0.000, 0.000, 10:14:24.406, 1561533264406
174, -4068.38, 4618.38, 14058.44, 12022.76, -5547.30, -568.05, -12931.98, -11561.60, 0.000, 0.000, 0.000, 10:14:24.406, 1561533264406
175, -4104.34, 4567.20, 13970.76, 11845.06, -5550.32, -520.91, -12888.60, -11553.13, 0.042, -0.036, -1.012, 10:14:24.406, 1561533264406
176, -4168.98, 4589.62, 13961.93, 11464.97, -5614.11, -664.65, -12849.55, -11608.53, 0.000, 0.000, 0.000, 10:14:24.406, 1561533264406
177, -4210.91, 4604.82, 13960.50, 11610.50, -5707.61, -848.29, -12852.63, -11704.51, 0.000, 0.000, 0.000, 10:14:24.406, 1561533264406
178, -4104.32, 4686.58, 13946.42, 11833.01, -5711.54, -997.71, -12763.09, -11697.09, 0.000, 0.000, 0.000, 10:14:24.406, 1561533264406
179, -4104.81, 4655.51, 13961.53, 11899.40, -5717.26, -1005.02, -12668.39, -11670.99, 0.000, 0.000, 0.000, 10:14:24.406, 1561533264406
180, -4166.81, 4620.35, 13963.11, 11946.65, -5714.67, -936.34, -12589.44, -11686.97, 0.000, 0.000, 0.000, 10:14:24.406, 1561533264406
181, -4163.68, 4640.85, 13961.08, 12016.57, -5758.23, -783.99, -12519.23, -11734.38, 0.000, 0.000, 0.000, 10:14:24.468, 1561533264468
182, -4198.33, 4648.04, 13986.07, 11951.16, -5825.94, -856.05, -12517.63, -11790.46, 0.000, 0.000, 0.000, 10:14:24.468, 1561533264468
183, -4152.86, 4583.96, 14024.80, 11977.41, -5821.11, -765.99, -12449.41, -11795.46, 0.000, 0.000, 0.000, 10:14:24.468, 1561533264468
184, -4124.84, 4558.10, 14035.44, 12073.83, -5815.81, -524.15, -12358.70, -11744.81, 0.000, 0.000, 0.000, 10:14:24.468, 1561533264468
185, -4084.74, 4567.44, 14002.12, 12149.18, -5790.35, -333.44, -12265.79, -11651.72, 0.026, -0.040, -1.032, 10:14:24.468, 1561533264468
186, -4109.35, 4549.92, 13974.62, 12094.48, -5831.68, -539.59, -12245.00, -11688.38, 0.000, 0.000, 0.000, 10:14:24.468, 1561533264468
187, -4183.82, 4604.97, 13973.64, 12164.49, -5925.65, -1038.22, -12302.87, -11739.58, 0.000, 0.000, 0.000, 10:14:24.468, 1561533264468
188, -4134.45, 4655.82, 13974.67, 12111.29, -5937.09, -1277.76, -12596.71, -11643.11, 0.000, 0.000, 0.000, 10:14:24.468, 1561533264468
189, -4104.25, 4565.14, 13934.70, 12033.58, -5937.52, -1248.17, -12844.99, -11552.41, 0.000, 0.000, 0.000, 10:14:24.468, 1561533264468
190, -4110.64, 4529.83, 13909.69, 12012.77, -5949.59, -1213.21, -12967.79, -11547.85, 0.000, 0.000, 0.000, 10:14:24.468, 1561533264468
191, -4130.47, 4552.36, 13894.27, 11999.96, -5989.02, -1256.66, -13073.76, -11613.27, 0.000, 0.000, 0.000, 10:14:24.468, 1561533264468
192, -4161.20, 4608.17, 13914.09, 11935.25, -6048.74, -1504.97, -13169.85, -11663.54, 0.000, 0.000, 0.000, 10:14:24.468, 1561533264468
193, -4126.33, 4621.89, 13987.50, 11962.03, -6046.01, -1527.76, -13217.17, -11648.70, 0.000, 0.000, 0.000, 10:14:24.468, 1561533264468
194, -4050.72, 4572.59, 13995.30, 11985.97, -6036.33, -1347.97, -13190.23, -11668.62, 0.000, 0.000, 0.000, 10:14:24.468, 1561533264468
195, -4082.79, 4499.96, 13944.67, 12045.09, -6004.89, -1223.36, -13092.91, -11702.68, 0.016, -0.040, -1.030, 10:14:24.468, 1561533264468
196, -4135.88, 4530.83, 13927.80, 12086.84, -6018.97, -1252.37, -13069.04, -11748.25, 0.000, 0.000, 0.000, 10:14:24.527, 1561533264527
197, -4172.04, 4622.68, 13942.97, 12058.83, -6070.91, -1503.49, -13120.05, -11802.73, 0.000, 0.000, 0.000, 10:14:24.527, 1561533264527
198, -4111.60, 4659.13, 13975.79, 12082.86, -6045.05, -1521.68, -13147.14, -11821.55, 0.000, 0.000, 0.000, 10:14:24.527, 1561533264527
199, -4094.48, 4591.03, 14015.35, 12120.43, -6021.40, -1569.45, -13181.14, -11871.21, 0.000, 0.000, 0.000, 10:14:24.527, 1561533264527
200, -4041.73, 4552.51, 13991.14, 12147.48, -5987.05, -1957.72, -13192.65, -11869.18, 0.000, 0.000, 0.000, 10:14:24.528, 1561533264528
201, -4047.27, 4606.67, 14004.42, 12235.37, -6009.06, -2132.07, -13235.00, -11890.01, 0.000, 0.000, 0.000, 10:14:24.528, 1561533264528
202, -4064.02, 4652.81, 14035.71, 12215.12, -6050.21, -2258.69, -13297.68, -11907.49, 0.000, 0.000, 0.000, 10:14:24.528, 1561533264528
203, -4032.43, 4618.97, 14099.86, 12321.24, -6003.92, -2272.88, -13315.20, -11902.79, 0.000, 0.000, 0.000, 10:14:24.528, 1561533264528
204, -4007.02, 4616.42, 14086.45, 12343.84, -5970.20, -2010.41, -13292.45, -11931.50, 0.000, 0.000, 0.000, 10:14:24.528, 1561533264528
205, -3970.50, 4634.16, 14057.75, 12378.35, -5951.20, -1737.71, -13264.78, -11939.74, 0.018, -0.054, -1.032, 10:14:24.528, 1561533264528
206, -3991.37, 4694.11, 14083.36, 12395.09, -5971.36, -1580.38, -13284.74, -11945.26, 0.000, 0.000, 0.000, 10:14:24.528, 1561533264528
207, -4039.65, 4690.25, 14199.24, 12477.73, -6011.01, -1590.01, -13299.38, -11958.99, 0.000, 0.000, 0.000, 10:14:24.528, 1561533264528
208, -3958.85, 4752.79, 14169.31, 12452.67, -5996.28, -1457.65, -13283.78, -11955.70, 0.000, 0.000, 0.000, 10:14:24.528, 1561533264528
209, -3909.48, 4800.46, 14147.36, 12281.10, -6011.03, -1578.64, -13277.25, -11953.42, 0.000, 0.000, 0.000, 10:14:24.528, 1561533264528
210, -3931.07, 4815.91, 14044.07, 12348.80, -6018.85, -1961.50, -13248.59, -11957.22, 0.000, 0.000, 0.000, 10:14:24.528, 1561533264528
211, -3996.87, 4654.97, 13966.73, 12238.67, -6039.35, -2142.68, -13250.31, -11969.36, 0.000, 0.000, 0.000, 10:14:24.586, 1561533264586
212, -4071.44, 4551.51, 13959.71, 12094.22, -6074.65, -2740.08, -13303.27, -11963.14, 0.000, 0.000, 0.000, 10:14:24.586, 1561533264586
213, -4024.66, 4550.66, 14004.91, 11805.10, -6082.85, -3426.90, -13320.39, -11975.77, 0.000, 0.000, 0.000, 10:14:24.586, 1561533264586
214, -4000.27, 4566.10, 14103.26, 11627.27, -6083.56, -3749.89, -13292.09, -11991.13, 0.000, 0.000, 0.000, 10:14:24.586, 1561533264586
215, -3976.46, 4551.15, 14280.60, 11625.01, -6062.40, -3213.67, -13272.13, -11989.48, 0.022, -0.046, -1.028, 10:14:24.586, 1561533264586
216, -3961.49, 4530.32, 14352.75, 11671.30, -6060.54, -2497.78, -13277.63, -11997.81, 0.000, 0.000, 0.000, 10:14:24.586, 1561533264586
217, -4017.44, 4588.41, 14446.29, 11422.97, -6075.92, -2829.55, -13271.04, -12031.88, 0.000, 0.000, 0.000, 10:14:24.586, 1561533264586
218, -3974.97, 4652.65, 14518.60, 11474.80, -6034.88, -4196.67, -13254.47, -12029.49, 0.000, 0.000, 0.000, 10:14:24.586, 1561533264586
219, -3973.40, 4660.14, 14475.93, 11785.83, -5990.63, -5487.82, -13249.73, -12008.94, 0.000, 0.000, 0.000, 10:14:24.586, 1561533264586
220, -4002.10, 4653.61, 14517.70, 12309.91, -5949.07, -5041.73, -13229.75, -12010.40, 0.000, 0.000, 0.000, 10:14:24.586, 1561533264586
221, -4051.90, 4527.70, 14547.07, 12419.79, -5917.98, -4146.83, -13238.80, -12019.65, 0.000, 0.000, 0.000, 10:14:24.586, 1561533264586
222, -4114.84, 4612.04, 14585.94, 12256.38, -5944.71, -3651.69, -13275.50, -12043.66, 0.000, 0.000, 0.000, 10:14:24.586, 1561533264586
223, -4077.70, 4646.82, 14503.29, 12138.25, -5900.82, -3249.99, -13282.28, -12044.73, 0.000, 0.000, 0.000, 10:14:24.587, 1561533264587
224, -4041.71, 4630.81, 14438.76, 12092.61, -5835.55, -3340.71, -13277.87, -12029.87, 0.000, 0.000, 0.000, 10:14:24.587, 1561533264587
225, -4027.34, 4471.40, 14422.75, 12010.26, -5789.93, -3229.80, -13286.12, -12037.15, 0.016, -0.042, -1.030, 10:14:24.587, 1561533264587
226, -4106.69, 4442.61, 14346.18, 12014.98, -5779.74, -2935.83, -13302.24, -12072.04, 0.000, 0.000, 0.000, 10:14:24.646, 1561533264646
227, -4134.92, 4453.90, 14355.09, 12009.28, -5819.77, -3337.65, -13343.92, -12108.10, 0.000, 0.000, 0.000, 10:14:24.646, 1561533264646
228, -4125.08, 4489.97, 14221.52, 11770.85, -5790.20, -3310.43, -13316.10, -12083.51, 0.000, 0.000, 0.000, 10:14:24.646, 1561533264646
229, -4137.80, 4442.61, 14257.26, 11690.83, -5717.26, -3186.67, -13286.23, -12079.53, 0.000, 0.000, 0.000, 10:14:24.646, 1561533264646
230, -4137.51, 4393.15, 14270.34, 11732.27, -5694.93, -2770.30, -13293.27, -12107.49, 0.000, 0.000, 0.000, 10:14:24.646, 1561533264646
231, -4198.77, 4367.62, 14227.60, 11765.04, -5789.73, -2272.32, -13284.33, -12124.61, 0.000, 0.000, 0.000, 10:14:24.646, 1561533264646
232, -4262.81, 4300.88, 14200.49, 11472.48, -5921.00, -2505.00, -13343.28, -12167.86, 0.000, 0.000, 0.000, 10:14:24.646, 1561533264646
233, -4239.19, 4314.24, 14304.33, 11293.64, -5962.08, -2946.68, -13364.87, -12198.13, 0.000, 0.000, 0.000, 10:14:24.646, 1561533264646
234, -4219.27, 4378.51, 14134.44, 11341.97, -5987.18, -2419.93, -13358.77, -12209.10, 0.000, 0.000, 0.000, 10:14:24.646, 1561533264646
235, -4224.10, 4291.07, 13959.67, 11192.10, -6029.87, -2275.59, -13361.78, -12202.76, 0.008, -0.042, -1.030, 10:14:24.646, 1561533264646
236, -4273.45, 4269.38, 13851.67, 11171.65, -6117.16, -2186.11, -13405.01, -12234.25, 0.000, 0.000, 0.000, 10:14:24.646, 1561533264646
237, -4340.84, 4295.71, 13776.41, 11459.34, -6221.76, -2690.90, -13442.99, -12254.77, 0.000, 0.000, 0.000, 10:14:24.646, 1561533264646
238, -4316.55, 4273.23, 13778.87, 11352.05, -6245.12, -2642.69, -13434.11, -12221.84, 0.000, 0.000, 0.000, 10:14:24.646, 1561533264646
239, -4309.48, 4275.62, 13758.12, 11079.16, -6261.93, -1921.31, -13442.38, -12180.20, 0.000, 0.000, 0.000, 10:14:24.646, 1561533264646
240, -4329.76, 4208.19, 13732.60, 11051.48, -6283.32, -1305.61, -13441.33, -12166.70, 0.000, 0.000, 0.000, 10:14:24.646, 1561533264646
241, -4385.77, 4161.92, 13682.31, 11197.91, -6336.14, -891.37, -13463.89, -12175.20, 0.000, 0.000, 0.000, 10:14:24.706, 1561533264706
242, -4455.75, 4133.93, 13702.76, 11205.58, -6393.63, -908.35, -13513.44, -12188.54, 0.000, 0.000, 0.000, 10:14:24.706, 1561533264706
243, -4442.34, 4156.55, 13719.05, 11116.39, -6379.86, -923.22, -13518.83, -12158.66, 0.000, 0.000, 0.000, 10:14:24.706, 1561533264706
244, -4431.95, 4135.39, 13659.78, 11186.18, -6369.67, -580.23, -13478.06, -12138.05, 0.006, -0.042, -1.028, 10:14:24.706, 1561533264706
245, -4410.13, 4118.11, 13643.97, 11250.59, -6357.31, -149.80, -13424.59, -12110.40, 0.000, 0.000, 0.000, 10:14:24.706, 1561533264706
246, -4421.64, 4099.31, 13596.14, 11377.55, -6386.27, -176.27, -13390.97, -12068.31, 0.000, 0.000, 0.000, 10:14:24.706, 1561533264706
247, -4498.06, 4069.72, 13580.76, 11393.44, -6442.60, -486.71, -13406.71, -12072.78, 0.000, 0.000, 0.000, 10:14:24.706, 1561533264706
248, -4512.08, 4054.18, 13600.34, 11419.48, -6432.21, -480.34, -13338.83, -12077.05, 0.000, 0.000, 0.000, 10:14:24.706, 1561533264706
249, -4449.65, 4056.33, 13630.56, 11421.16, -6415.22, -681.33, -13277.87, -12083.24, 0.000, 0.000, 0.000, 10:14:24.706, 1561533264706
250, -4456.00, 4048.86, 13642.70, 11487.39, -6400.47, -560.63, -13269.16, -12088.38, 0.000, 0.000, 0.000, 10:14:24.706, 1561533264706
251, -4520.73, 4042.29, 13638.52, 11600.85, -6405.72, -732.94, -13308.50, -12094.77, 0.000, 0.000, 0.000, 10:14:24.706, 1561533264706
252, -4571.20, 4061.71, 13698.74, 11539.40, -6438.93, -1157.35, -13351.97, -12134.74, 0.000, 0.000, 0.000, 10:14:24.706, 1561533264706
253, -4502.96, 4092.45, 13711.72, 11528.11, -6418.88, -1039.33, -13327.14, -12139.70, 0.000, 0.000, 0.000, 10:14:24.706, 1561533264706
254, -4457.88, 4105.32, 13672.11, 11625.57, -6393.98, -919.75, -13349.22, -12131.83, 0.014, -0.048, -1.034, 10:14:24.706, 1561533264706
255, -4474.01, 4087.66, 13648.71, 11607.98, -6351.43, -831.73, -13361.78, -12126.74, 0.000, 0.000, 0.000, 10:14:24.706, 1561533264706
0, -4491.61, 4102.98, 13675.27, 11544.34, -6346.53, -865.55, -13363.26, -12182.95, 0.000, 0.000, 0.000, 10:14:24.767, 1561533264767
1, -4531.70, 4170.59, 13633.65, 11563.54, -6390.74, -1085.13, -13387.89, -12291.51, 0.000, 0.000, 0.000, 10:14:24.767, 1561533264767
2, -4451.33, 4188.16, 13666.88, 11882.90, -6386.03, -1313.75, -13399.67, -12382.11, 0.000, 0.000, 0.000, 10:14:24.768, 1561533264768
3, -4412.41, 4165.74, 13672.32, 12159.21, -6363.07, -1293.70, -13386.26, -12427.39, 0.000, 0.000, 0.000, 10:14:24.768, 1561533264768
4, -4396.86, 4199.78, 13687.38, 11835.16, -6337.37, -1036.38, -13383.02, -12466.93, 0.000, 0.000, 0.000, 10:14:24.768, 1561533264768
5, -4390.31, 4236.86, 13651.28, 11894.59, -6349.77, -1083.70, -13415.27, -12498.63, 0.000, 0.000, 0.000, 10:14:24.768, 1561533264768
6, -4448.85, 4242.85, 13701.44, 11787.21, -6380.95, -1183.30, -13474.66, -12501.29, 0.000, 0.000, 0.000, 10:14:24.768, 1561533264768
7, -4413.96, 4262.34, 13762.08, 11723.24, -6345.48, -929.36, -13487.36, -12478.44, 0.000, 0.000, 0.000, 10:14:24.768, 1561533264768
8, -4377.41, 4272.31, 13808.97, 11708.38, -6305.45, -787.70, -13481.77, -12456.67, 0.020, -0.060, -1.030, 10:14:24.768, 1561533264768
9, -4334.27, 4229.71, 13800.79, 11811.62, -6271.92, -557.83, -13481.77, -12436.02, 0.000, 0.000, 0.000, 10:14:24.768, 1561533264768
10, -4329.09, 4268.78, 13761.37, 12062.83, -6262.31, -694.83, -13460.71, -12413.22, 0.000, 0.000, 0.000, 10:14:24.768, 1561533264768
11, -4386.40, 4360.27, 13831.19, 11961.60, -6279.81, -962.78, -13466.84, -12400.90, 0.000, 0.000, 0.000, 10:14:24.768, 1561533264768
12, -4328.79, 4357.54, 13910.27, 11983.08, -6231.46, -858.02, -13436.55, -12358.75, 0.000, 0.000, 0.000, 10:14:24.768, 1561533264768
13, -4276.20, 4428.28, 13926.28, 12050.67, -6186.76, -478.91, -13417.68, -12330.25, 0.000, 0.000, 0.000, 10:14:24.768, 1561533264768
14, -4209.77, 4446.30, 13908.55, 12097.84, -6158.42, -150.65, -13421.53, -12317.53, 0.000, 0.000, 0.000, 10:14:24.768, 1561533264768
15, -4259.21, 4376.36, 13816.80, 12176.74, -6146.15, -71.68, -13442.16, -12314.16, 0.000, 0.000, 0.000, 10:14:24.826, 1561533264826
16, -4326.14, 4377.34, 13788.92, 12304.66, -6144.05, 56.37, -13463.59, -12307.81, 0.000, 0.000, 0.000, 10:14:24.827, 1561533264827
17, -4261.07, 4359.82, 13804.82, 12186.75, -6098.54, 958.51, -13429.55, -12259.13, 0.000, 0.000, 0.000, 10:14:24.827, 1561533264827
18, -4241.91, 4230.29, 13920.58, 11950.16, -6064.21, 1951.44, -13413.48, -12213.08, 0.014, -0.054, -1.030, 10:14:24.827, 1561533264827
19, -4204.21, 4308.88, 14015.73, 11979.37, -6021.31, 2006.29, -13405.73, -12168.49, 0.000, 0.000, 0.000, 10:14:24.827, 1561533264827
20, -4236.48, 4347.57, 14041.34, 12075.15, -6017.89, 1909.82, -13421.91, -12124.35, 0.000, 0.000, 0.000, 10:14:24.827, 1561533264827
21, -4269.83, 4384.12, 14084.50, 11948.10, -6047.38, 1843.59, -13466.50, -12089.92, 0.000, 0.000, 0.000, 10:14:24.827, 1561533264827
22, -4205.57, 4670.82, 14089.20, 11983.24, -6020.24, 2296.49, -13461.43, -12023.99, 0.000, 0.000, 0.000, 10:14:24.827, 1561533264827
23, -4173.27, 4752.90, 14200.35, 12013.06, -6004.84, 2533.37, -13452.42, -11958.38, 0.000, 0.000, 0.000, 10:14:24.827, 1561533264827
24, -4116.88, 4508.48, 14241.91, 12164.33, -5979.85, 2658.70, -13425.87, -11906.71, 0.000, 0.000, 0.000, 10:14:24.827, 1561533264827
25, -4101.30, 4541.18, 14194.34, 12198.24, -5974.96, 2588.64, -13410.69, -11873.29, 0.000, 0.000, 0.000, 10:14:24.828, 1561533264828
26, -4163.95, 4619.46, 14265.11, 11929.66, -6001.85, 2309.92, -13422.29, -11841.10, 0.000, 0.000, 0.000, 10:14:24.828, 1561533264828
27, -4090.75, 4670.82, 14319.87, 12131.14, -5975.25, 1694.87, -13402.26, -11769.49, 0.000, 0.000, 0.000, 10:14:24.828, 1561533264828
28, -4050.27, 4693.84, 14371.05, 12325.44, -5956.58, 674.78, -13396.83, -11687.57, 0.002, -0.050, -1.030, 10:14:24.828, 1561533264828
29, -3997.86, 4749.28, 14347.38, 12311.65, -5946.17, 400.95, -13408.03, -11588.75, 0.000, 0.000, 0.000, 10:14:24.828, 1561533264828
30, -3974.07, 4620.51, 14341.84, 12422.07, -5964.05, 393.59, -13456.49, -11510.01, 0.000, 0.000, 0.000, 10:14:24.886, 1561533264886
31, -4032.95, 4695.45, 14227.38, 12514.47, -6002.99, 365.09, -13498.64, -11568.28, 0.000, 0.000, 0.000, 10:14:24.886, 1561533264886
32, -4001.92, 4780.55, 14170.25, 12167.91, -5978.94, 531.66, -13499.36, -11720.96, 0.000, 0.000, 0.000, 10:14:24.887, 1561533264887
33, -3991.53, 4739.62, 14128.00, 12131.21, -5962.82, -462.48, -13528.66, -11790.12, 0.000, 0.000, 0.000, 10:14:24.887, 1561533264887
34, -3938.00, 4674.91, 14073.17, 12028.08, -5963.91, 141.75, -13581.14, -11825.61, 0.000, 0.000, 0.000, 10:14:24.887, 1561533264887
35, -3931.20, 4694.47, 14046.75, 11987.55, -5980.37, 586.24, -13642.25, -11836.83, 0.000, 0.000, 0.000, 10:14:24.887, 1561533264887
36, -4068.82, 4681.77, 14031.22, 11841.73, -6017.02, 875.56, -13729.27, -11838.85, 0.000, 0.000, 0.000, 10:14:24.888, 1561533264888
37, -4039.38, 4668.61, 14049.39, 11862.99, -5995.68, 751.91, -13756.54, -11816.74, 0.000, 0.000, 0.000, 10:14:24.888, 1561533264888
38, -3975.93, 4697.04, 14059.18, 11935.99, -5975.78, 487.74, -13724.71, -11865.40, 0.006, -0.044, -1.032, 10:14:24.888, 1561533264888
39, -3936.30, 4711.05, 14033.34, 11998.17, -5976.81, 343.70, -13703.34, -11961.00, 0.000, 0.000, 0.000, 10:14:24.888, 1561533264888
40, -3953.89, 4776.10, 13995.03, 11982.14, -6004.84, 172.47, -13720.46, -12047.28, 0.000, 0.000, 0.000, 10:14:24.888, 1561533264888
41, -4039.61, 4743.00, 13990.22, 11875.46, -6040.72, 198.39, -13757.54, -12112.57, 0.000, 0.000, 0.000, 10:14:24.888, 1561533264888
42, -4028.70, 4709.09, 14026.21, 11863.77, -6029.00, 433.58, -13757.12, -12127.99, 0.000, 0.000, 0.000, 10:14:24.888, 1561533264888
43, -4009.21, 4695.83, 13995.63, 11852.64, -6017.00, 571.29, -13755.87, -12105.79, 0.000, 0.000, 0.000, 10:14:24.888, 1561533264888
44, -3957.96, 4677.73, 14025.07, 11833.86, -5995.32, 732.89, -13739.50, -12054.45, 0.000, 0.000, 0.000, 10:14:24.888, 1561533264888
45, -3954.85, 4702.83, 14059.69, 11814.60, -5990.29, 753.88, -13733.74, -12008.90, 0.000, 0.000, 0.000, 10:14:24.945, 1561533264945
46, -3981.09, 4731.51, 14066.40, 11761.00, -6007.19, 649.83, -13750.21, -11985.09, 0.000, 0.000, 0.000, 10:14:24.945, 1561533264945
47, -3901.88, 4805.89, 14085.47, 11751.83, -5970.06, 606.05, -13735.26, -11923.54, 0.000, 0.000, 0.000, 10:14:24.946, 1561533264946
48, -3854.65, 4809.94, 14113.96, 11860.80, -5937.16, 604.48, -13722.16, -11853.55, 0.018, -0.038, -1.028, 10:14:24.946, 1561533264946
49, -3794.05, 4782.18, 14151.74, 11938.80, -5911.37, 611.43, -13705.91, -11791.19, 0.000, 0.000, 0.000, 10:14:24.946, 1561533264946
50, -3766.40, 4696.44, 14214.64, 12121.08, -5911.75, 586.42, -13709.98, -11745.55, 0.000, 0.000, 0.000, 10:14:24.946, 1561533264946
51, -3814.48, 4747.53, 14278.61, 12070.43, -5936.65, 365.00, -13731.32, -11713.07, 0.000, 0.000, 0.000, 10:14:24.946, 1561533264946
52, -3783.17, 4788.44, 14268.88, 11947.36, -5914.20, 592.23, -13718.29, -11685.07, 0.000, 0.000, 0.000, 10:14:24.946, 1561533264946
53, -3749.86, 4865.01, 14269.53, 11889.07, -5898.04, 603.52, -13709.80, -11667.92, 0.000, 0.000, 0.000, 10:14:24.946, 1561533264946
54, -3707.39, 4865.28, 14261.22, 11887.84, -5885.08, 598.94, -13702.38, -11635.04, 0.000, 0.000, 0.000, 10:14:24.946, 1561533264946
55, -3718.37, 4797.38, 14243.49, 11898.10, -5877.57, 644.71, -13700.95, -11602.14, 0.000, 0.000, 0.000, 10:14:24.946, 1561533264946
56, -3789.38, 4768.88, 14249.50, 11895.91, -5890.82, 582.93, -13703.61, -11592.87, 0.000, 0.000, 0.000, 10:14:24.946, 1561533264946
57, -3746.53, 4850.15, 14271.90, 11928.99, -5874.75, 425.76, -13690.11, -11566.54, 0.000, 0.000, 0.000, 10:14:24.946, 1561533264946
58, -3700.91, 4907.71, 14279.61, 11980.51, -5873.37, 328.26, -13683.25, -11539.98, 0.018, -0.040, -1.026, 10:14:24.946, 1561533264946
59, -3664.88, 4871.58, 14266.65, 11962.94, -5881.84, 423.70, -13685.55, -11522.26, 0.000, 0.000, 0.000, 10:14:24.946, 1561533264946
60, -3709.23, 4794.72, 14235.54, 11937.64, -5909.18, 362.66, -13699.07, -11528.36, 0.000, 0.000, 0.000, 10:14:25.006, 1561533265006
61, -3768.88, 4807.61, 14260.86, 11808.56, -5955.98, 377.99, -13709.08, -11555.78, 0.000, 0.000, 0.000, 10:14:25.006, 1561533265006
62, -3754.94, 4869.17, 14227.13, 11760.71, -5967.69, 910.95, -13678.62, -11569.11, 0.000, 0.000, 0.000, 10:14:25.006, 1561533265006
63, -3737.50, 4869.24, 14205.14, 11808.18, -5970.84, 691.03, -13630.79, -11581.49, 0.000, 0.000, 0.000, 10:14:25.006, 1561533265006
64, -3690.25, 4835.38, 14181.09, 11854.76, -5992.26, 488.59, -13579.76, -11601.83, 0.000, 0.000, 0.000, 10:14:25.006, 1561533265006
65, -3748.77, 4834.75, 14155.72, 11841.42, -6035.89, 382.28, -13523.30, -11631.33, 0.000, 0.000, 0.000, 10:14:25.006, 1561533265006
66, -3837.39, 4878.87, 14163.52, 11773.85, -6101.40, 72.26, -13484.20, -11677.31, 0.000, 0.000, 0.000, 10:14:25.006, 1561533265006
67, -3816.09, 4853.08, 14191.48, 11774.59, -6115.91, 70.45, -13428.86, -11693.18, 0.000, 0.000, 0.000, 10:14:25.006, 1561533265006
68, -3771.90, 4873.60, 14161.08, 11869.42, -6113.11, 42.69, -13383.17, -11676.19, 0.014, -0.042, -1.030, 10:14:25.006, 1561533265006
69, -3759.27, 4858.87, 14079.83, 11953.76, -6118.41, 62.50, -13393.66, -11634.78, 0.000, 0.000, 0.000, 10:14:25.006, 1561533265006
70, -3776.93, 4856.32, 14021.05, 11891.73, -6151.51, -85.41, -13408.88, -11623.67, 0.000, 0.000, 0.000, 10:14:25.006, 1561533265006
71, -3855.50, 4814.86, 14115.95, 11820.88, -6205.54, -189.07, -13429.38, -11633.77, 0.000, 0.000, 0.000, 10:14:25.006, 1561533265006
72, -3840.01, 4795.03, 14147.67, 11814.80, -6219.75, -212.99, -13424.77, -11620.27, 0.000, 0.000, 0.000, 10:14:25.006, 1561533265006
73, -3796.13, 4776.01, 14204.94, 11851.86, -6224.67, -171.86, -13414.22, -11596.02, 0.000, 0.000, 0.000, 10:14:25.006, 1561533265006
74, -3803.75, 4775.72, 14158.24, 11944.39, -6237.05, 176.98, -13421.33, -11572.73, 0.000, 0.000, 0.000, 10:14:25.006, 1561533265006
75, -3831.11, 4709.78, 14110.97, 11917.68, -6259.72, 417.28, -13432.01, -11542.93, 0.000, 0.000, 0.000, 10:14:25.066, 1561533265066
76, -3913.70, 4738.99, 14137.10, 11737.88, -6302.39, 411.83, -13461.09, -11573.38, 0.000, 0.000, 0.000, 10:14:25.066, 1561533265066
77, -3907.73, 4780.90, 14183.77, 11450.78, -6303.21, 317.42, -13448.78, -11773.80, 0.000, 0.000, 0.000, 10:14:25.067, 1561533265067
78, -3861.62, 4717.29, 14175.57, 11191.72, -6303.30, 402.31, -13452.71, -11939.34, 0.008, -0.050, -1.030, 10:14:25.067, 1561533265067
79, -3843.85, 4701.64, 14155.94, 11493.62, -6302.88, 411.09, -13450.97, -12007.74, 0.000, 0.000, 0.000, 10:14:25.067, 1561533265067
80, -3906.37, 4564.96, 14177.84, 11612.40, -6313.34, 730.23, -13442.67, -12052.93, 0.000, 0.000, 0.000, 10:14:25.067, 1561533265067
81, -3989.88, 4573.41, 14143.02, 11595.82, -6363.09, 909.47, -13459.39, -12102.17, 0.000, 0.000, 0.000, 10:14:25.067, 1561533265067
82, -3958.25, 4687.79, 14141.90, 11531.49, -6373.53, 150.36, -13455.17, -12117.06, 0.000, 0.000, 0.000, 10:14:25.067, 1561533265067
83, -3900.09, 4715.39, 14193.16, 11555.16, -6354.62, -256.31, -13425.93, -12106.71, 0.000, 0.000, 0.000, 10:14:25.067, 1561533265067
84, -3894.50, 4662.53, 14142.31, 11648.70, -6349.28, -354.52, -13399.87, -12111.20, 0.000, 0.000, 0.000, 10:14:25.067, 1561533265067
85, -3930.13, 4604.53, 14141.97, 11657.87, -6361.04, -264.58, -13387.55, -12111.96, 0.000, 0.000, 0.000, 10:14:25.067, 1561533265067
86, -4002.84, 4573.64, 14239.38, 11480.53, -6389.51, -502.40, -13388.74, -12132.91, 0.000, 0.000, 0.000, 10:14:25.067, 1561533265067
87, -3967.32, 4592.72, 14261.82, 11526.39, -6387.46, -759.45, -13382.97, -12142.58, 0.000, 0.000, 0.000, 10:14:25.067, 1561533265067
88, -3934.06, 4618.67, 14252.50, 11604.98, -6372.42, -772.86, -13377.63, -12118.40, 0.012, -0.048, -1.028, 10:14:25.067, 1561533265067
89, -3927.51, 4695.99, 14223.87, 11646.62, -6374.05, -1069.11, -13377.72, -12108.59, 0.000, 0.000, 0.000, 10:14:25.068, 1561533265068
90, -3943.88, 4733.16, 14191.57, 11559.43, -6386.81, -1098.86, -13386.28, -12108.52, 0.000, 0.000, 0.000, 10:14:25.127, 1561533265127
91, -4028.72, 4638.52, 14175.72, 11352.92, -6422.59, -1417.41, -13424.28, -12101.88, 0.000, 0.000, 0.000, 10:14:25.127, 1561533265127
92, -4050.52, 4541.85, 14165.98, 11377.62, -6438.58, -536.24, -13454.21, -12106.87, 0.000, 0.000, 0.000, 10:14:25.127, 1561533265127
93, -4006.89, 4579.87, 14183.50, 11351.80, -6436.72, -192.78, -13475.67, -12105.21, 0.000, 0.000, 0.000, 10:14:25.127, 1561533265127
94, -3981.20, 4538.16, 14218.01, 11506.10, -6418.75, -499.16, -13492.14, -12098.26, 0.000, 0.000, 0.000, 10:14:25.127, 1561533265127
95, -3988.42, 4495.45, 14187.05, 11608.04, -6428.36, -706.99, -13516.52, -12138.36, 0.000, 0.000, 0.000, 10:14:25.127, 1561533265127
96, -4080.11, 4521.89, 14122.12, 11587.34, -6483.06, -1156.37, -13571.33, -12186.04, 0.000, 0.000, 0.000, 10:14:25.128, 1561533265128
97, -4087.35, 4570.64, 14071.81, 11529.50, -6485.05, -1450.92, -13594.13, -12165.74, 0.016, -0.042, -1.030, 10:14:25.128, 1561533265128
98, -4072.47, 4525.69, 14090.09, 11570.09, -6475.66, -1342.00, -13597.86, -12155.08, 0.000, 0.000, 0.000, 10:14:25.128, 1561533265128
99, -4063.08, 4517.53, 14106.57, 11670.27, -6473.65, -1201.21, -13594.67, -12157.16, 0.000, 0.000, 0.000, 10:14:25.128, 1561533265128
100, -4069.40, 4530.05, 14050.91, 11662.60, -6494.23, -1316.90, -13597.26, -12168.33, 0.000, 0.000, 0.000, 10:14:25.128, 1561533265128
101, -4160.75, 4512.50, 14004.13, 11526.37, -6558.74, -1526.83, -13627.28, -12187.15, 0.000, 0.000, 0.000, 10:14:25.128, 1561533265128
102, -4152.78, 4485.73, 14030.70, 11483.59, -6573.58, -1930.16, -13632.51, -12096.58, 0.000, 0.000, 0.000, 10:14:25.128, 1561533265128
103, -4118.47, 4523.99, 14101.02, 11449.84, -6571.84, -2618.53, -13616.03, -12136.53, 0.000, 0.000, 0.000, 10:14:25.128, 1561533265128
104, -4129.84, 4515.59, 14063.56, 11470.40, -6574.34, -2485.38, -13598.76, -12205.93, 0.000, 0.000, 0.000, 10:14:25.128, 1561533265128
105, -4154.65, 4505.42, 14026.03, 11398.34, -6588.02, -1794.31, -13574.86, -12240.02, 0.000, 0.000, 0.000, 10:14:25.187, 1561533265187
106, -4222.83, 4503.65, 14042.91, 11349.43, -6624.74, -1663.35, -13559.73, -12269.81, 0.000, 0.000, 0.000, 10:14:25.187, 1561533265187
107, -4216.95, 4499.58, 14023.10, 11276.59, -6612.18, -1632.44, -13514.67, -12273.99, 0.020, -0.038, -1.028, 10:14:25.187, 1561533265187
108, -4194.10, 4531.75, 13993.09, 11317.54, -6603.29, -1570.01, -13483.49, -12276.14, 0.000, 0.000, 0.000, 10:14:25.187, 1561533265187
109, -4158.81, 4526.23, 13972.39, 11336.96, -6601.74, -1272.69, -13478.82, -12281.23, 0.000, 0.000, 0.000, 10:14:25.187, 1561533265187
110, -4173.74, 4510.67, 13952.36, 11275.76, -6612.32, -1187.79, -13485.12, -12287.25, 0.000, 0.000, 0.000, 10:14:25.187, 1561533265187
111, -4227.30, 4541.20, 13933.07, 11262.26, -6634.98, -1363.75, -13491.78, -12301.28, 0.000, 0.000, 0.000, 10:14:25.187, 1561533265187
112, -4196.14, 4539.66, 13932.51, 11282.02, -6605.21, -1369.63, -13455.08, -12286.96, 0.000, 0.000, 0.000, 10:14:25.187, 1561533265187
113, -4194.48, 4532.29, 13923.01, 11274.53, -6579.37, -1313.61, -13418.56, -12275.96, 0.000, 0.000, 0.000, 10:14:25.187, 1561533265187
114, -4181.97, 4515.30, 13885.22, 11319.68, -6559.81, -1243.43, -13376.94, -12260.98, 0.000, 0.000, 0.000, 10:14:25.187, 1561533265187
115, -4176.69, 4500.17, 13865.86, 11353.75, -6560.55, -1505.97, -13352.42, -12245.83, 0.000, 0.000, 0.000, 10:14:25.187, 1561533265187
116, -4222.36, 4567.94, 13856.09, 11316.78, -6591.28, -1560.08, -13350.92, -12240.93, 0.000, 0.000, 0.000, 10:14:25.187, 1561533265187
117, -4212.10, 4596.79, 13851.76, 11294.78, -6569.92, -1406.08, -13335.54, -12219.07, 0.006, -0.042, -1.028, 10:14:25.187, 1561533265187
118, -4192.29, 4534.65, 13859.00, 11386.20, -6529.46, -1246.27, -13320.83, -12198.96, 0.000, 0.000, 0.000, 10:14:25.187, 1561533265187
119, -4150.70, 4538.54, 13862.04, 11457.46, -6498.90, -1093.63, -13308.36, -12188.58, 0.000, 0.000, 0.000, 10:14:25.187, 1561533265187
120, -4123.92, 4568.72, 13855.49, 11448.36, -6479.68, -1023.29, -13298.17, -12182.68, 0.000, 0.000, 0.000, 10:14:25.245, 1561533265245
121, -4158.70, 4612.57, 13857.08, 11386.58, -6482.32, -1067.99, -13289.81, -12177.14, 0.000, 0.000, 0.000, 10:14:25.246, 1561533265246
122, -4171.64, 4602.65, 13889.78, 11442.01, -6444.05, -1009.16, -13259.66, -12146.29, 0.000, 0.000, 0.000, 10:14:25.246, 1561533265246
123, -4125.86, 4584.23, 13913.60, 11499.75, -6401.45, -901.04, -13221.12, -12110.24, 0.000, 0.000, 0.000, 10:14:25.246, 1561533265246
124, -4106.73, 4577.75, 13877.28, 11521.30, -6393.65, -840.29, -13209.37, -12087.08, 0.000, 0.000, 0.000, 10:14:25.246, 1561533265246
125, -4104.63, 4578.29, 13825.42, 11536.03, -6386.65, -771.40, -13194.93, -12068.60, 0.000, 0.000, 0.000, 10:14:25.246, 1561533265246
126, -4166.05, 4574.26, 13814.70, 11492.89, -6401.58, -846.77, -13218.51, -12084.58, 0.000, 0.000, 0.000, 10:14:25.246, 1561533265246
127, -4152.82, 4552.74, 13827.82, 11526.88, -6380.28, -811.97, -13243.32, -12077.76, 0.008, -0.042, -1.034, 10:14:25.246, 1561533265246
128, -4121.37, 4562.08, 13823.41, 11556.52, -6368.66, -737.65, -13274.10, -12073.94, 0.000, 0.000, 0.000, 10:14:25.247, 1561533265247
129, -4073.09, 4583.74, 13815.70, 11575.86, -6358.15, -630.57, -13314.89, -12064.69, 0.000, 0.000, 0.000, 10:14:25.247, 1561533265247
130, -4089.16, 4580.56, 13790.44, 11574.98, -6357.69, -575.51, -13364.91, -12036.35, 0.000, 0.000, 0.000, 10:14:25.247, 1561533265247
131, -4170.34, 4499.47, 13778.62, 11530.88, -6382.25, -686.56, -13408.01, -11998.62, 0.000, 0.000, 0.000, 10:14:25.247, 1561533265247
132, -4154.00, 4526.68, 13803.05, 11559.54, -6363.59, -751.53, -13409.62, -11932.52, 0.000, 0.000, 0.000, 10:14:25.247, 1561533265247
133, -4126.38, 4544.91, 13811.43, 11725.34, -6337.59, -1279.21, -13396.03, -11901.39, 0.000, 0.000, 0.000, 10:14:25.248, 1561533265248
134, -4097.68, 4505.26, 13796.79, 11810.10, -6328.49, -1580.00, -13395.60, -11984.74, 0.000, 0.000, 0.000, 10:14:25.248, 1561533265248
135, -4090.50, 4465.97, 13770.75, 11677.67, -6333.75, -1133.52, -13414.49, -12058.12, 0.000, 0.000, 0.000, 10:14:25.306, 1561533265306
136, -4179.87, 4490.73, 13751.17, 11596.17, -6356.90, -1015.71, -13454.77, -12081.77, 0.000, 0.000, 0.000, 10:14:25.306, 1561533265306
137, -4172.44, 4495.96, 13758.44, 11557.01, -6341.48, -911.48, -13461.90, -12110.71, 0.006, -0.042, -1.028, 10:14:25.306, 1561533265306
138, -4127.07, 4511.01, 13779.49, 11571.03, -6321.10, -792.01, -13454.45, -12151.12, 0.000, 0.000, 0.000, 10:14:25.306, 1561533265306
139, -4097.92, 4501.04, 13776.70, 11587.79, -6317.30, -681.12, -13436.21, -12155.79, 0.000, 0.000, 0.000, 10:14:25.306, 1561533265306
140, -4108.18, 4467.35, 13745.81, 11581.04, -6332.29, -612.66, -13414.64, -12185.28, 0.000, 0.000, 0.000, 10:14:25.307, 1561533265307
141, -4165.52, 4511.86, 13749.03, 11507.55, -6358.11, -728.87, -13437.35, -12204.43, 0.000, 0.000, 0.000, 10:14:25.307, 1561533265307
142, -4153.54, 4537.25, 13752.45, 11517.81, -6345.46, -789.15, -13449.71, -12223.19, 0.000, 0.000, 0.000, 10:14:25.307, 1561533265307
143, -4109.50, 4494.96, 13758.10, 11532.18, -6325.16, -727.64, -13444.08, -12244.93, 0.000, 0.000, 0.000, 10:14:25.307, 1561533265307
144, -4069.58, 4501.17, 13769.99, 11555.76, -6318.17, -658.06, -13437.15, -12274.04, 0.000, 0.000, 0.000, 10:14:25.307, 1561533265307
145, -4073.07, 4494.51, 13749.27, 11552.54, -6326.53, -624.31, -13428.41, -12306.67, 0.000, 0.000, 0.000, 10:14:25.307, 1561533265307
146, -4143.25, 4489.53, 13715.99, 11497.80, -6350.91, -783.56, -13458.45, -12352.45, 0.000, 0.000, 0.000, 10:14:25.307, 1561533265307
147, -4152.89, 4488.05, 13713.60, 11473.84, -6340.27, -849.01, -13489.79, -12390.93, 0.014, -0.044, -1.024, 10:14:25.308, 1561533265308
148, -4167.19, 4488.12, 13728.08, 11509.56, -6331.33, -795.79, -13507.52, -12401.89, 0.000, 0.000, 0.000, 10:14:25.308, 1561533265308
149, -4146.23, 4464.00, 13727.50, 11540.38, -6329.25, -687.05, -13520.26, -12404.68, 0.000, 0.000, 0.000, 10:14:25.308, 1561533265308
150, -4159.53, 4409.57, 13741.70, 11518.90, -6336.70, -762.98, -13541.78, -12403.30, 0.000, 0.000, 0.000, 10:14:25.366, 1561533265366
151, -4211.16, 4410.63, 13786.18, 11614.88, -6361.73, -1746.43, -13593.44, -12413.89, 0.000, 0.000, 0.000, 10:14:25.367, 1561533265367
152, -4203.92, 4456.42, 13743.68, 11669.87, -6348.99, -1629.89, -13614.96, -12423.34, 0.000, 0.000, 0.000, 10:14:25.367, 1561533265367
153, -4154.81, 4481.97, 13737.02, 11560.37, -6354.78, -1204.04, -13647.59, -12434.74, 0.000, 0.000, 0.000, 10:14:25.367, 1561533265367
154, -4122.47, 4466.28, 13717.40, 11484.24, -6357.26, -1076.93, -13696.84, -12437.54, 0.000, 0.000, 0.000, 10:14:25.367, 1561533265367
155, -4150.52, 4406.15, 13705.04, 11500.49, -6371.66, -993.00, -13753.27, -12442.59, 0.000, 0.000, 0.000, 10:14:25.367, 1561533265367
156, -4211.83, 4404.12, 13688.61, 11485.24, -6400.96, -1109.07, -13824.13, -12466.51, 0.000, 0.000, 0.000, 10:14:25.367, 1561533265367
157, -4243.84, 4440.49, 13665.74, 11510.92, -6393.22, -1186.88, -13868.12, -12475.27, 0.012, -0.038, -1.034, 10:14:25.367, 1561533265367
158, -4237.96, 4446.86, 13664.31, 11495.48, -6397.00, -1146.38, -13893.31, -12473.44, 0.000, 0.000, 0.000, 10:14:25.367, 1561533265367
159, -4197.95, 4411.36, 13683.92, 11501.09, -6394.99, -1012.13, -13916.62, -12459.29, 0.000, 0.000, 0.000, 10:14:25.367, 1561533265367
160, -4182.50, 4395.09, 13691.99, 11508.67, -6409.14, -799.90, -13935.93, -12457.50, 0.000, 0.000, 0.000, 10:14:25.367, 1561533265367
161, -4265.96, 4407.94, 13680.76, 11437.34, -6443.65, -924.33, -13956.52, -12469.57, 0.000, 0.000, 0.000, 10:14:25.367, 1561533265367
162, -4268.15, 4411.59, 13698.24, 11427.20, -6432.74, -966.87, -13943.15, -12452.40, 0.000, 0.000, 0.000, 10:14:25.367, 1561533265367
163, -4224.28, 4474.33, 13718.14, 11406.27, -6419.73, -1020.22, -13927.28, -12449.59, 0.000, 0.000, 0.000, 10:14:25.367, 1561533265367
164, -4197.90, 4463.38, 13696.86, 11435.11, -6429.28, -940.65, -13942.44, -12453.34, 0.000, 0.000, 0.000, 10:14:25.367, 1561533265367
165, -4177.07, 4404.95, 13670.44, 11452.79, -6450.49, -897.24, -13969.26, -12458.79, 0.000, 0.000, 0.000, 10:14:25.427, 1561533265427
166, -4234.16, 4439.41, 13696.54, 11441.70, -6467.28, -1102.37, -13998.65, -12446.61, 0.000, 0.000, 0.000, 10:14:25.427, 1561533265427
167, -4239.01, 4442.88, 13735.71, 11345.14, -6454.71, -1227.51, -14016.02, -12419.66, 0.010, -0.034, -1.036, 10:14:25.428, 1561533265428
168, -4196.79, 4463.04, 13740.64, 11314.77, -6456.21, -1216.38, -14019.84, -12435.21, 0.000, 0.000, 0.000, 10:14:25.428, 1561533265428
169, -4147.48, 4501.24, 13715.48, 11474.02, -6442.15, -1121.36, -14015.46, -12459.91, 0.000, 0.000, 0.000, 10:14:25.428, 1561533265428
170, -4171.19, 4449.83, 13688.34, 11492.13, -6437.79, -1069.37, -14036.27, -12478.60, 0.000, 0.000, 0.000, 10:14:25.428, 1561533265428
171, -4246.85, 4431.14, 13693.08, 11470.98, -6459.85, -1151.70, -14068.43, -12481.01, 0.000, 0.000, 0.000, 10:14:25.428, 1561533265428
172, -4214.31, 4477.21, 13715.77, 11580.95, -6449.19, -1413.50, -14058.62, -12495.16, 0.000, 0.000, 0.000, 10:14:25.428, 1561533265428
173, -4185.63, 4475.65, 13711.81, 11770.12, -6444.50, -1486.23, -14046.95, -12532.26, 0.000, 0.000, 0.000, 10:14:25.428, 1561533265428
174, -4149.24, 4479.67, 13724.08, 11654.78, -6441.93, -1235.43, -14050.17, -12533.09, 0.000, 0.000, 0.000, 10:14:25.428, 1561533265428
175, -4163.28, 4445.76, 13692.07, 11580.39, -6448.86, -1131.60, -14077.87, -12519.90, 0.000, 0.000, 0.000, 10:14:25.428, 1561533265428
176, -4232.91, 4468.65, 13688.12, 11486.76, -6469.27, -1238.33, -14115.91, -12531.30, 0.000, 0.000, 0.000, 10:14:25.428, 1561533265428
177, -4199.22, 4506.18, 13729.58, 11503.84, -6428.50, -1265.80, -14092.98, -12478.55, 0.006, -0.038, -1.026, 10:14:25.428, 1561533265428
178, -4118.62, 4537.09, 13789.42, 11571.90, -6362.18, -1157.69, -14007.37, -12380.54, 0.000, 0.000, 0.000, 10:14:25.428, 1561533265428
179, -4041.84, 4602.18, 13809.64, 11609.90, -6318.01, -1101.81, -13930.81, -12348.24, 0.000, 0.000, 0.000, 10:14:25.428, 1561533265428
180, -4007.31, 4606.38, 13803.45, 11644.21, -6298.07, -1218.10, -13914.03, -12330.36, 0.000, 0.000, 0.000, 10:14:25.486, 1561533265486
181, -4068.13, 4617.60, 13835.15, 11589.94, -6281.11, -1171.77, -13903.48, -12310.58, 0.000, 0.000, 0.000, 10:14:25.487, 1561533265487
182, -4031.81, 4647.55, 13881.19, 11595.93, -6234.75, -1074.29, -13852.43, -12264.98, 0.000, 0.000, 0.000, 10:14:25.487, 1561533265487
183, -3973.94, 4663.31, 13894.11, 11652.99, -6200.17, -935.17, -13807.59, -12235.84, 0.000, 0.000, 0.000, 10:14:25.487, 1561533265487
184, -3915.71, 4687.83, 13900.04, 11673.87, -6187.19, -847.49, -13800.06, -12238.05, 0.000, 0.000, 0.000, 10:14:25.487, 1561533265487
185, -3908.25, 4689.91, 13910.47, 11707.53, -6181.84, -812.06, -13782.26, -12235.03, 0.000, 0.000, 0.000, 10:14:25.487, 1561533265487
186, -3998.15, 4701.33, 13926.72, 11862.43, -6191.46, -1552.86, -13768.34, -12234.99, 0.000, 0.000, 0.000, 10:14:25.487, 1561533265487
187, -3986.99, 4719.55, 13912.55, 11871.06, -6174.00, -1790.20, -13742.19, -12218.98, 0.012, -0.040, -1.026, 10:14:25.487, 1561533265487
188, -3939.36, 4701.76, 13929.54, 11773.71, -6146.13, -1269.69, -13714.96, -12209.68, 0.000, 0.000, 0.000, 10:14:25.487, 1561533265487
189, -3905.99, 4684.72, 13942.64, 11719.94, -6143.09, -1002.34, -13699.21, -12206.33, 0.000, 0.000, 0.000, 10:14:25.487, 1561533265487
190, -3889.07, 4689.24, 13934.88, 11646.44, -6149.84, -813.09, -13674.19, -12205.42, 0.000, 0.000, 0.000, 10:14:25.487, 1561533265487
191, -3947.18, 4718.97, 13902.58, 11636.23, -6163.16, -849.19, -13656.45, -12205.84, 0.000, 0.000, 0.000, 10:14:25.487, 1561533265487
192, -3934.87, 4745.30, 13912.46, 11644.50, -6137.59, -851.40, -13614.20, -12177.12, 0.000, 0.000, 0.000, 10:14:25.487, 1561533265487
193, -3908.31, 4764.72, 13941.52, 11659.76, -6116.69, -792.86, -13562.97, -12147.39, 0.000, 0.000, 0.000, 10:14:25.487, 1561533265487
194, -3887.28, 4755.02, 13965.55, 11704.67, -6098.05, -712.10, -13515.34, -12127.92, 0.000, 0.000, 0.000, 10:14:25.487, 1561533265487
195, -3871.28, 4648.18, 13937.97, 11736.70, -6102.83, -512.23, -13482.30, -12127.16, 0.000, 0.000, 0.000, 10:14:25.546, 1561533265546
196, -3939.47, 4665.03, 13935.22, 11660.01, -6133.81, -597.31, -13473.88, -12148.80, 0.000, 0.000, 0.000, 10:14:25.546, 1561533265546
197, -3938.71, 4708.75, 13961.97, 11655.41, -6129.65, -717.07, -13452.38, -12150.32, 0.016, -0.046, -1.020, 10:14:25.546, 1561533265546
198, -3893.74, 4740.72, 13964.21, 11674.67, -6117.54, -693.08, -13412.61, -12124.12, 0.000, 0.000, 0.000, 10:14:25.546, 1561533265546
199, -3862.20, 4749.14, 13927.84, 11677.09, -6120.96, -646.95, -13398.44, -12109.33, 0.000, 0.000, 0.000, 10:14:25.546, 1561533265546
200, -3874.14, 4718.25, 13938.46, 11690.41, -6118.66, -590.24, -13373.50, -12078.88, 0.000, 0.000, 0.000, 10:14:25.546, 1561533265546
201, -3955.74, 4699.92, 13934.26, 11623.91, -6162.87, -678.76, -13377.54, -12069.36, 0.000, 0.000, 0.000, 10:14:25.546, 1561533265546
202, -3962.99, 4709.31, 13928.20, 11614.88, -6145.08, -720.78, -13387.04, -12060.15, 0.000, 0.000, 0.000, 10:14:25.546, 1561533265546
203, -3926.33, 4730.59, 13949.39, 11654.80, -6109.65, -660.14, -13357.69, -12021.86, 0.000, 0.000, 0.000, 10:14:25.546, 1561533265546
204, -3886.01, 4734.97, 13940.47, 11648.28, -6114.30, -582.29, -13347.84, -11986.26, 0.000, 0.000, 0.000, 10:14:25.546, 1561533265546
205, -3878.34, 4681.13, 13901.47, 11622.93, -6142.62, -534.18, -13378.88, -11977.83, 0.000, 0.000, 0.000, 10:14:25.546, 1561533265546
206, -3976.69, 4653.66, 13905.47, 11596.22, -6173.84, -635.04, -13403.80, -11974.77, 0.000, 0.000, 0.000, 10:14:25.546, 1561533265546
207, -3992.36, 4675.36, 13926.46, 11591.99, -6166.60, -679.45, -13405.01, -11955.66, 0.008, -0.044, -1.024, 10:14:25.546, 1561533265546
208, -3953.84, 4687.18, 13938.10, 11606.19, -6143.35, -616.68, -13378.41, -11928.83, 0.000, 0.000, 0.000, 10:14:25.546, 1561533265546
209, -3916.56, 4703.30, 13934.48, 11642.91, -6133.03, -535.03, -13390.19, -11927.87, 0.000, 0.000, 0.000, 10:14:25.546, 1561533265546
210, -3905.10, 4700.37, 13897.73, 11656.97, -6145.81, -456.69, -13408.57, -11939.83, 0.000, 0.000, 0.000, 10:14:25.606, 1561533265606
211, -3965.71, 4679.27, 13883.47, 11626.66, -6167.18, -555.46, -13425.31, -11957.07, 0.000, 0.000, 0.000, 10:14:25.606, 1561533265606
212, -3981.38, 4661.77, 13890.45, 11622.37, -6162.87, -587.29, -13410.91, -11943.72, 0.000, 0.000, 0.000, 10:14:25.606, 1561533265606
213, -3972.60, 4670.40, 13900.79, 11650.20, -6156.92, -521.71, -13403.07, -11936.52, 0.000, 0.000, 0.000, 10:14:25.606, 1561533265606
214, -3942.13, 4696.75, 13912.49, 11657.35, -6152.81, -441.92, -13396.65, -11922.04, 0.000, 0.000, 0.000, 10:14:25.606, 1561533265606
215, -3924.01, 4673.35, 13911.35, 11671.48, -6122.79, -347.44, -13379.98, -11894.46, 0.000, 0.000, 0.000, 10:14:25.606, 1561533265606
216, -3961.09, 4661.59, 13909.00, 11644.21, -6159.22, -443.26, -13385.97, -11884.22, 0.006, -0.048, -1.030, 10:14:25.606, 1561533265606
217, -3990.50, 4656.94, 13905.87, 11654.76, -6194.20, -484.14, -13382.39, -11875.26, 0.000, 0.000, 0.000, 10:14:25.606, 1561533265606
218, -3953.26, 4670.02, 13915.15, 11669.78, -6181.84, -416.55, -13356.37, -11856.46, 0.000, 0.000, 0.000, 10:14:25.606, 1561533265606
219, -3919.13, 4682.35, 13937.05, 11599.84, -6146.22, -336.19, -13344.86, -11851.03, 0.000, 0.000, 0.000, 10:14:25.606, 1561533265606
220, -3927.02, 4652.20, 13911.30, 11673.22, -6161.19, -247.25, -13347.37, -11855.19, 0.000, 0.000, 0.000, 10:14:25.606, 1561533265606
221, -3985.41, 4652.85, 13886.83, 11685.11, -6183.56, -340.57, -13369.54, -11883.91, 0.000, 0.000, 0.000, 10:14:25.606, 1561533265606
222, -3985.79, 4681.33, 13871.85, 11707.11, -6186.23, -382.71, -13374.19, -11902.06, 0.000, 0.000, 0.000, 10:14:25.606, 1561533265606
223, -3957.80, 4658.84, 13877.97, 11725.64, -6204.82, -320.43, -13381.25, -11918.58, 0.000, 0.000, 0.000, 10:14:25.606, 1561533265606
224, -3928.70, 4646.55, 13865.68, 11713.30, -6225.23, -245.58, -13394.95, -11933.69, 0.000, 0.000, 0.000, 10:14:25.606, 1561533265606
225, -3917.23, 4644.00, 13862.80, 11722.39, -6147.91, -153.47, -13379.24, -11919.76, 0.000, 0.000, 0.000, 10:14:25.666, 1561533265666
226, -3992.27, 4635.06, 13848.31, 11651.14, -6253.28, -275.64, -13432.44, -11971.62, 0.012, -0.050, -1.036, 10:14:25.666, 1561533265666
227, -3980.15, 4669.21, 13885.04, 11646.73, -6212.18, -300.27, -13426.07, -11969.29, 0.000, 0.000, 0.000, 10:14:25.666, 1561533265666
228, -3964.89, 4647.73, 13875.02, 11665.80, -6179.81, -242.99, -13425.26, -11988.80, 0.000, 0.000, 0.000, 10:14:25.666, 1561533265666
229, -3939.07, 4624.53, 13864.52, 11708.16, -6175.36, -147.34, -13421.24, -12003.94, 0.000, 0.000, 0.000, 10:14:25.666, 1561533265666
230, -3922.37, 4610.58, 13828.35, 11689.43, -6184.68, -51.48, -13432.46, -12025.73, 0.000, 0.000, 0.000, 10:14:25.666, 1561533265666
231, -4005.50, 4619.52, 13811.01, 11618.66, -6257.26, -156.13, -13472.67, -12083.93, 0.000, 0.000, 0.000, 10:14:25.666, 1561533265666
232, -4034.51, 4638.05, 13809.22, 11601.76, -6262.98, -194.04, -13478.24, -12108.36, 0.000, 0.000, 0.000, 10:14:25.667, 1561533265667
233, -3999.44, 4623.37, 13806.31, 11608.33, -6244.99, -117.21, -13476.04, -12109.97, 0.000, 0.000, 0.000, 10:14:25.667, 1561533265667
234, -3965.02, 4590.27, 13821.94, 11641.59, -6204.69, -20.63, -13475.51, -12104.12, 0.000, 0.000, 0.000, 10:14:25.667, 1561533265667
235, -3994.41, 4536.15, 13783.09, 11631.53, -6291.21, 51.92, -13497.03, -12121.04, 0.000, 0.000, 0.000, 10:14:25.667, 1561533265667
236, -4068.38, 4544.18, 13769.03, 11570.29, -6312.76, -38.98, -13508.97, -12154.70, 0.012, -0.048, -1.028, 10:14:25.667, 1561533265667
237, -4066.50, 4574.75, 13748.04, 11546.20, -6289.85, -87.40, -13497.41, -12186.15, 0.000, 0.000, 0.000, 10:14:25.667, 1561533265667
238, -4036.14, 4561.54, 13738.97, 11570.60, -6290.27, -30.04, -13489.32, -12197.75, 0.000, 0.000, 0.000, 10:14:25.667, 1561533265667
239, -4009.32, 4540.58, 13726.61, 11610.70, -6304.47, 55.59, -13506.91, -12214.83, 0.000, 0.000, 0.000, 10:14:25.667, 1561533265667
240, -4008.58, 4512.35, 13716.55, 11596.82, -6303.80, 170.16, -13502.73, -12202.60, 0.000, 0.000, 0.000, 10:14:25.727, 1561533265727
241, -4094.01, 4531.84, 13711.19, 11556.77, -6318.46, 76.80, -13522.67, -12211.90, 0.000, 0.000, 0.000, 10:14:25.727, 1561533265727
242, -4092.29, 4558.55, 13722.72, 11537.72, -6353.48, -7.20, -13533.80, -12210.00, 0.000, 0.000, 0.000, 10:14:25.727, 1561533265727
243, -4053.80, 4587.56, 13724.19, 11552.30, -6266.62, 58.25, -13518.00, -12206.18, 0.000, 0.000, 0.000, 10:14:25.727, 1561533265727
244, -4001.90, 4565.70, 13731.53, 11579.34, -6249.46, 139.50, -13512.14, -12203.09, 0.000, 0.000, 0.000, 10:14:25.727, 1561533265727
245, -3996.54, 4544.78, 13721.60, 11630.86, -6221.85, 260.31, -13494.15, -12188.29, 0.000, 0.000, 0.000, 10:14:25.728, 1561533265728
246, -4038.83, 4562.19, 13741.92, 11610.95, -6233.83, 162.63, -13497.03, -12197.03, 0.014, -0.040, -1.028, 10:14:25.728, 1561533265728
247, -4014.60, 4538.16, 13774.31, 11615.26, -6255.85, 83.68, -13501.03, -12185.95, 0.000, 0.000, 0.000, 10:14:25.728, 1561533265728
248, -3987.66, 4547.04, 13759.42, 11650.35, -6220.98, 87.40, -13497.23, -12165.36, 0.000, 0.000, 0.000, 10:14:25.728, 1561533265728
249, -3973.29, 4567.76, 13771.22, 11703.57, -6213.07, 129.66, -13497.15, -12153.49, 0.000, 0.000, 0.000, 10:14:25.728, 1561533265728
250, -3956.62, 4564.85, 13750.88, 11729.32, -6210.36, 201.66, -13495.78, -12143.59, 0.000, 0.000, 0.000, 10:14:25.728, 1561533265728
251, -4014.57, 4567.91, 13756.07, 11661.67, -6213.29, 79.71, -13519.16, -12153.43, 0.000, 0.000, 0.000, 10:14:25.728, 1561533265728
252, -4034.29, 4579.13, 13782.17, 11624.87, -6239.31, -6.59, -13522.38, -12152.46, 0.000, 0.000, 0.000, 10:14:25.728, 1561533265728
253, -4002.91, 4578.06, 13757.07, 11640.25, -6207.91, -14.66, -13514.29, -12146.65, 0.000, 0.000, 0.000, 10:14:25.728, 1561533265728
254, -3981.02, 4570.66, 13739.71, 11692.22, -6205.27, 31.25, -13521.96, -12152.69, 0.000, 0.000, 0.000, 10:14:25.728, 1561533265728
0, -4711.55, 2575.46, 11046.79, 10219.64, -8648.38, -4371.08, -15571.21, -15248.14, 0.010, -0.044, -1.032, 10:15:38.034, 1561533338034
1, -4699.16, 2548.79, 11038.83, 10235.22, -8616.75, -4268.78, -15542.49, -15237.88, 0.000, 0.000, 0.000, 10:15:38.034, 1561533338034
2, -4798.38, 2549.69, 11020.42, 10168.12, -8702.16, -4409.80, -15600.76, -15277.62, 0.000, 0.000, 0.000, 10:15:38.034, 1561533338034
3, -4802.43, 2584.38, 11033.33, 10156.10, -8726.97, -4513.44, -15624.65, -15283.72, 0.000, 0.000, 0.000, 10:15:38.034, 1561533338034
4, -4748.45, 2584.40, 11045.43, 10189.94, -8680.95, -4457.88, -15594.86, -15262.06, 0.000, 0.000, 0.000, 10:15:38.034, 1561533338034
5, -4712.17, 2568.71, 11047.66, 10217.21, -8646.37, -4373.32, -15568.66, -15249.12, 0.000, 0.000, 0.000, 10:15:38.034, 1561533338034
6, -4695.41, 2548.48, 11038.77, 10231.98, -8615.28, -4269.94, -15539.31, -15238.50, 0.000, 0.000, 0.000, 10:15:38.034, 1561533338034
7, -4784.44, 2549.35, 11023.68, 10168.59, -8697.78, -4407.92, -15596.42, -15276.61, 0.008, -0.052, -1.030, 10:15:38.034, 1561533338034
8, -4794.67, 2580.22, 11033.89, 10153.86, -8727.77, -4515.66, -15628.09, -15288.12, 0.000, 0.000, 0.000, 10:15:38.034, 1561533338034
9, -4749.01, 2584.78, 11045.74, 10185.11, -8685.69, -4463.80, -15603.46, -15271.31, 0.000, 0.000, 0.000, 10:15:38.034, 1561533338034
10, -4716.11, 2571.34, 11043.53, 10208.85, -8650.64, -4382.44, -15581.11, -15259.58, 0.000, 0.000, 0.000, 10:15:38.034, 1561533338034
11, -4699.72, 2547.94, 11033.22, 10225.88, -8614.05, -4270.43, -15547.98, -15243.40, 0.000, 0.000, 0.000, 10:15:38.034, 1561533338034
12, -4783.25, 2558.13, 11022.90, 10171.43, -8691.21, -4401.75, -15596.85, -15272.66, 0.000, 0.000, 0.000, 10:15:38.034, 1561533338034
13, -4786.42, 2594.01, 11041.47, 10165.93, -8716.40, -4505.69, -15620.11, -15275.54, 0.000, 0.000, 0.000, 10:15:38.034, 1561533338034
14, -4745.77, 2590.43, 11050.61, 10194.25, -8676.28, -4455.15, -15595.06, -15257.28, 0.000, 0.000, 0.000, 10:15:38.034, 1561533338034
15, -4718.72, 2571.21, 11045.09, 10215.80, -8648.25, -4379.09, -15577.24, -15249.99, 0.000, 0.000, 0.000, 10:15:38.094, 1561533338094
16, -4687.92, 2552.52, 11042.39, 10239.60, -8611.17, -4267.48, -15543.54, -15234.03, 0.004, -0.056, -1.024, 10:15:38.094, 1561533338094
17, -4777.64, 2553.17, 11028.04, 10179.97, -8692.50, -4395.58, -15595.84, -15270.78, 0.000, 0.000, 0.000, 10:15:38.094, 1561533338094
18, -4791.81, 2579.57, 11035.86, 10161.55, -8725.09, -4512.48, -15629.64, -15286.22, 0.000, 0.000, 0.000, 10:15:38.094, 1561533338094
19, -4742.19, 2584.35, 11045.52, 10190.81, -8682.80, -4463.67, -15604.07, -15269.86, 0.000, 0.000, 0.000, 10:15:38.094, 1561533338094
20, -4706.25, 2576.46, 11048.51, 10214.10, -8647.76, -4379.58, -15579.17, -15256.52, 0.000, 0.000, 0.000, 10:15:38.094, 1561533338094
21, -4688.75, 2550.78, 11039.39, 10228.47, -8613.78, -4270.28, -15548.77, -15245.83, 0.000, 0.000, 0.000, 10:15:38.094, 1561533338094
22, -4778.87, 2550.85, 11026.05, 10170.74, -8692.86, -4397.82, -15598.97, -15279.79, 0.000, 0.000, 0.000, 10:15:38.094, 1561533338094
23, -4791.83, 2580.04, 11036.96, 10157.55, -8726.61, -4508.93, -15629.77, -15290.81, 0.000, 0.000, 0.000, 10:15:38.094, 1561533338094
24, -4742.86, 2584.96, 11051.35, 10185.64, -8685.37, -4460.38, -15600.47, -15270.78, 0.000, 0.000, 0.000, 10:15:38.094, 1561533338094
25, -4707.88, 2579.03, 11053.43, 10210.30, -8650.01, -4383.24, -15572.30, -15255.42, 0.000, 0.000, 0.000, 10:15:38.095, 1561533338095
26, -4696.46, 2552.75, 11039.12, 10224.78, -8618.74, -4276.63, -15544.65, -15245.03, 0.010, -0.060, -1.026, 10:15:38.095, 1561533338095
27, -4781.08, 2551.54, 11028.95, 10172.52, -8690.11, -4397.77, -15589.02, -15271.63, 0.000, 0.000, 0.000, 10:15:38.095, 1561533338095
28, -4794.07, 2579.82, 11039.88, 10159.74, -8722.01, -4510.09, -15620.87, -15282.85, 0.000, 0.000, 0.000, 10:15:38.095, 1561533338095
29, -4747.53, 2579.70, 11046.10, 10185.49, -8684.35, -4462.21, -15601.03, -15268.61, 0.000, 0.000, 0.000, 10:15:38.095, 1561533338095
30, -4710.65, 2572.33, 11048.98, 10209.63, -8649.83, -4382.44, -15577.18, -15254.08, 0.000, 0.000, 0.000, 10:15:38.154, 1561533338154
31, -4690.02, 2548.84, 11040.44, 10227.84, -8613.85, -4270.88, -15546.91, -15239.89, 0.000, 0.000, 0.000, 10:15:38.154, 1561533338154
32, -4781.42, 2548.90, 11024.80, 10167.74, -8692.06, -4397.86, -15600.42, -15276.28, 0.000, 0.000, 0.000, 10:15:38.154, 1561533338154
33, -4794.45, 2580.29, 11035.97, 10152.25, -8725.83, -4516.48, -15634.20, -15290.07, 0.000, 0.000, 0.000, 10:15:38.154, 1561533338154
34, -4745.21, 2584.29, 11046.30, 10182.25, -8685.02, -4467.35, -15609.45, -15272.95, 0.000, 0.000, 0.000, 10:15:38.154, 1561533338154
35, -4709.27, 2574.38, 11049.52, 10209.14, -8649.37, -4388.00, -15584.69, -15259.74, 0.000, 0.000, 0.000, 10:15:38.154, 1561533338154
36, -4691.70, 2542.96, 11036.93, 10222.53, -8617.85, -4282.86, -15562.04, -15254.10, 0.008, -0.058, -1.034, 10:15:38.154, 1561533338154
37, -4773.42, 2545.84, 11029.04, 10174.87, -8686.58, -4396.16, -15602.46, -15279.96, 0.000, 0.000, 0.000, 10:15:38.154, 1561533338154
38, -4790.67, 2579.79, 11044.31, 10163.07, -8719.64, -4509.04, -15631.94, -15290.18, 0.000, 0.000, 0.000, 10:15:38.154, 1561533338154
39, -4740.85, 2588.18, 11055.93, 10192.24, -8677.51, -4461.23, -15606.64, -15273.33, 0.000, 0.000, 0.000, 10:15:38.154, 1561533338154
40, -4708.13, 2576.40, 11057.25, 10214.39, -8644.83, -4384.18, -15581.11, -15259.78, 0.000, 0.000, 0.000, 10:15:38.154, 1561533338154
41, -4684.63, 2553.35, 11049.65, 10235.15, -8607.37, -4272.38, -15547.58, -15243.64, 0.000, 0.000, 0.000, 10:15:38.154, 1561533338154
42, -4771.27, 2551.54, 11032.58, 10179.01, -8685.02, -4392.18, -15596.04, -15276.08, 0.000, 0.000, 0.000, 10:15:38.154, 1561533338154
43, -4790.00, 2579.55, 11043.06, 10160.95, -8722.99, -4513.35, -15628.65, -15287.99, 0.000, 0.000, 0.000, 10:15:38.155, 1561533338155
44, -4742.19, 2587.91, 11057.50, 10189.67, -8679.34, -4466.64, -15597.54, -15266.08, 0.000, 0.000, 0.000, 10:15:38.155, 1561533338155
45, -4712.37, 2575.10, 11055.58, 10209.70, -8646.37, -4388.97, -15571.99, -15250.75, 0.000, 0.000, 0.000, 10:15:38.214, 1561533338214
46, -4689.75, 2549.28, 11042.68, 10223.51, -8611.08, -4275.75, -15541.37, -15238.10, 0.004, -0.060, -1.032, 10:15:38.214, 1561533338214
47, -4782.58, 2542.51, 11020.24, 10161.66, -8692.50, -4397.35, -15595.30, -15276.37, 0.000, 0.000, 0.000, 10:15:38.214, 1561533338214
48, -4797.13, 2578.63, 11034.45, 10150.51, -8728.60, -4513.40, -15627.02, -15286.67, 0.000, 0.000, 0.000, 10:15:38.214, 1561533338214
49, -4739.13, 2591.71, 11053.92, 10190.36, -8682.51, -4460.31, -15596.58, -15263.04, 0.000, 0.000, 0.000, 10:15:38.214, 1561533338214
50, -4711.12, 2573.45, 11050.95, 10208.67, -8653.68, -4387.67, -15577.42, -15253.14, 0.000, 0.000, 0.000, 10:15:38.214, 1561533338214
51, -4694.63, 2545.68, 11035.48, 10228.00, -8620.89, -4279.93, -15549.59, -15242.26, 0.000, 0.000, 0.000, 10:15:38.215, 1561533338215
52, -4781.24, 2543.11, 11017.64, 10175.70, -8694.69, -4394.35, -15595.33, -15273.55, 0.000, 0.000, 0.000, 10:15:38.215, 1561533338215
53, -4801.20, 2574.32, 11027.79, 10150.78, -8734.59, -4519.75, -15628.12, -15288.12, 0.000, 0.000, 0.000, 10:15:38.215, 1561533338215
54, -4748.94, 2586.32, 11044.47, 10179.45, -8691.97, -4473.17, -15600.82, -15270.17, 0.000, 0.000, 0.000, 10:15:38.215, 1561533338215
55, -4714.65, 2577.16, 11048.15, 10198.21, -8659.65, -4397.62, -15580.44, -15260.29, 0.000, 0.000, 0.000, 10:15:38.215, 1561533338215
56, -4682.98, 2552.66, 11043.91, 10224.40, -8618.99, -4280.94, -15550.00, -15247.33, 0.006, -0.054, -1.032, 10:15:38.215, 1561533338215
57, -4771.96, 2540.34, 11027.25, 10169.82, -8693.24, -4396.39, -15601.67, -15284.14, 0.000, 0.000, 0.000, 10:15:38.215, 1561533338215
58, -4795.70, 2570.74, 11036.80, 10147.60, -8730.75, -4518.45, -15638.93, -15298.74, 0.000, 0.000, 0.000, 10:15:38.215, 1561533338215
59, -4739.28, 2591.19, 11056.51, 10183.86, -8681.55, -4465.14, -15609.70, -15273.10, 0.000, 0.000, 0.000, 10:15:38.215, 1561533338215
60, -4705.62, 2577.89, 11056.83, 10204.35, -8654.30, -4392.65, -15590.97, -15264.34, 0.000, 0.000, 0.000, 10:15:38.274, 1561533338274
61, -4683.52, 2548.50, 11046.70, 10223.46, -8622.68, -4282.01, -15562.98, -15254.77, 0.000, 0.000, 0.000, 10:15:38.274, 1561533338274
62, -4766.24, 2547.16, 11030.88, 10172.68, -8693.24, -4391.31, -15607.51, -15284.84, 0.000, 0.000, 0.000, 10:15:38.275, 1561533338275
63, -4788.19, 2576.93, 11038.36, 10152.74, -8734.26, -4516.93, -15644.57, -15300.44, 0.000, 0.000, 0.000, 10:15:38.275, 1561533338275
64, -4739.69, 2586.23, 11050.55, 10182.61, -8690.80, -4469.41, -15620.43, -15281.60, 0.000, 0.000, 0.000, 10:15:38.275, 1561533338275
65, -4709.98, 2574.23, 11050.23, 10205.90, -8658.78, -4394.49, -15598.46, -15269.19, 0.000, 0.000, 0.000, 10:15:38.275, 1561533338275
66, -4680.21, 2553.37, 11045.23, 10233.14, -8616.53, -4276.67, -15561.93, -15251.04, 0.008, -0.058, -1.034, 10:15:38.275, 1561533338275
67, -4766.69, 2551.63, 11026.63, 10179.43, -8686.38, -4384.18, -15606.59, -15282.38, 0.000, 0.000, 0.000, 10:15:38.275, 1561533338275
68, -4792.21, 2582.86, 11034.65, 10157.15, -8732.09, -4516.15, -15645.13, -15297.67, 0.000, 0.000, 0.000, 10:15:38.275, 1561533338275
69, -4751.31, 2581.76, 11040.04, 10179.05, -8699.43, -4481.21, -15625.90, -15284.48, 0.000, 0.000, 0.000, 10:15:38.275, 1561533338275
70, -4717.42, 2576.46, 11042.79, 10206.32, -8661.48, -4404.55, -15595.86, -15266.29, 0.000, 0.000, 0.000, 10:15:38.275, 1561533338275
71, -4685.62, 2558.36, 11040.53, 10232.65, -8613.07, -4278.77, -15554.53, -15243.80, 0.000, 0.000, 0.000, 10:15:38.275, 1561533338275
72, -4769.59, 2548.84, 11023.48, 10177.11, -8684.28, -4386.93, -15600.27, -15277.01, 0.000, 0.000, 0.000, 10:15:38.275, 1561533338275
73, -4796.55, 2574.54, 11033.00, 10155.67, -8729.12, -4518.43, -15637.48, -15292.37, 0.000, 0.000, 0.000, 10:15:38.275, 1561533338275
74, -4747.73, 2579.30, 11049.61, 10188.21, -8684.35, -4471.04, -15611.73, -15274.49, 0.000, 0.000, 0.000, 10:15:38.275, 1561533338275
75, -4716.08, 2572.22, 11049.54, 10210.63, -8654.35, -4399.02, -15592.33, -15267.07, 0.000, 0.000, 0.000, 10:15:38.334, 1561533338334
76, -4684.50, 2556.50, 11044.09, 10236.79, -8610.94, -4279.15, -15556.30, -15250.46, 0.012, -0.056, -1.026, 10:15:38.334, 1561533338334
77, -4764.59, 2551.36, 11028.08, 10183.41, -8680.39, -4381.93, -15600.38, -15282.25, 0.000, 0.000, 0.000, 10:15:38.334, 1561533338334
78, -4788.55, 2579.06, 11038.59, 10163.41, -8727.46, -4517.22, -15639.87, -15299.21, 0.000, 0.000, 0.000, 10:15:38.334, 1561533338334
79, -4736.92, 2591.64, 11053.14, 10198.74, -8687.94, -4472.63, -15616.07, -15281.80, 0.000, 0.000, 0.000, 10:15:38.334, 1561533338334
80, -4705.13, 2578.68, 11051.06, 10215.80, -8658.31, -4398.82, -15595.62, -15270.85, 0.000, 0.000, 0.000, 10:15:38.334, 1561533338334
81, -4682.47, 2549.64, 11040.46, 10230.48, -8620.58, -4284.00, -15564.75, -15259.33, 0.000, 0.000, 0.000, 10:15:38.334, 1561533338334
82, -4759.60, 2550.98, 11030.79, 10181.96, -8682.62, -4379.98, -15601.43, -15284.10, 0.000, 0.000, 0.000, 10:15:38.334, 1561533338334
83, -4788.55, 2574.68, 11035.26, 10153.59, -8733.12, -4518.96, -15644.57, -15305.60, 0.000, 0.000, 0.000, 10:15:38.334, 1561533338334
84, -4739.02, 2582.88, 11048.89, 10186.56, -8691.14, -4477.10, -15617.77, -15287.39, 0.000, 0.000, 0.000, 10:15:38.334, 1561533338334
85, -4704.46, 2579.35, 11055.13, 10213.14, -8657.90, -4405.22, -15592.51, -15271.92, 0.000, 0.000, 0.000, 10:15:38.334, 1561533338334
86, -4675.38, 2556.23, 11046.59, 10237.57, -8616.37, -4283.60, -15556.84, -15253.12, 0.010, -0.052, -1.038, 10:15:38.334, 1561533338334
87, -4758.02, 2550.76, 11026.96, 10184.68, -8681.93, -4379.29, -15598.48, -15280.50, 0.000, 0.000, 0.000, 10:15:38.335, 1561533338335
88, -4792.50, 2574.72, 11032.11, 10158.60, -8731.84, -4516.30, -15641.95, -15299.41, 0.000, 0.000, 0.000, 10:15:38.335, 1561533338335
89, -4742.19, 2580.44, 11048.40, 10189.31, -8692.28, -4473.41, -15619.53, -15282.60, 0.000, 0.000, 0.000, 10:15:38.335, 1561533338335
90, -4708.33, 2572.04, 11048.80, 10209.14, -8661.03, -4402.62, -15596.93, -15270.82, 0.000, 0.000, 0.000, 10:15:38.394, 1561533338394
91, -4673.66, 2555.59, 11048.40, 10241.75, -8613.83, -4280.34, -15554.85, -15248.16, 0.000, 0.000, 0.000, 10:15:38.394, 1561533338394
92, -4752.41, 2548.81, 11033.87, 10188.62, -8678.85, -4374.73, -15594.39, -15276.79, 0.000, 0.000, 0.000, 10:15:38.395, 1561533338395
93, -4789.82, 2573.27, 11032.04, 10151.07, -8736.18, -4518.07, -15644.19, -15300.95, 0.000, 0.000, 0.000, 10:15:38.395, 1561533338395
94, -4735.73, 2591.48, 11054.79, 10190.88, -8689.20, -4470.97, -15612.63, -15273.97, 0.000, 0.000, 0.000, 10:15:38.395, 1561533338395
95, -4701.60, 2582.99, 11058.10, 10217.85, -8655.58, -4396.30, -15588.87, -15258.69, 0.000, 0.000, 0.000, 10:15:38.395, 1561533338395
96, -4670.75, 2562.45, 11051.35, 10240.43, -8611.99, -4274.73, -15555.63, -15244.45, 0.010, -0.056, -1.034, 10:15:38.395, 1561533338395
97, -4754.60, 2558.58, 11032.33, 10190.16, -8676.32, -4371.31, -15598.59, -15276.79, 0.000, 0.000, 0.000, 10:15:38.395, 1561533338395
98, -4787.21, 2578.12, 11038.03, 10160.72, -8727.37, -4513.38, -15644.12, -15298.56, 0.000, 0.000, 0.000, 10:15:38.395, 1561533338395
99, -4735.37, 2584.06, 11053.90, 10194.45, -8684.35, -4470.55, -15620.05, -15278.49, 0.000, 0.000, 0.000, 10:15:38.395, 1561533338395
100, -4703.01, 2579.41, 11056.33, 10216.92, -8653.21, -4398.35, -15596.02, -15264.61, 0.000, 0.000, 0.000, 10:15:38.395, 1561533338395
101, -4672.36, 2562.11, 11050.95, 10242.02, -8613.18, -4275.87, -15560.46, -15248.96, 0.000, 0.000, 0.000, 10:15:38.395, 1561533338395
102, -4749.61, 2556.68, 11037.42, 10193.47, -8675.65, -4362.75, -15600.47, -15279.00, 0.000, 0.000, 0.000, 10:15:38.395, 1561533338395
103, -4786.18, 2579.93, 11046.12, 10161.50, -8729.14, -4504.64, -15644.32, -15299.43, 0.000, 0.000, 0.000, 10:15:38.395, 1561533338395
104, -4737.65, 2586.83, 11058.97, 10187.68, -8690.34, -4469.48, -15622.06, -15283.16, 0.000, 0.000, 0.000, 10:15:38.395, 1561533338395
105, -4708.86, 2572.64, 11054.01, 10207.77, -8660.23, -4404.66, -15602.30, -15274.27, 0.000, 0.000, 0.000, 10:15:38.455, 1561533338455
106, -4667.76, 2556.46, 11056.98, 10239.80, -8609.00, -4281.74, -15558.29, -15249.08, 0.008, -0.056, -1.030, 10:15:38.455, 1561533338455
107, -4744.81, 2549.40, 11041.92, 10190.99, -8669.46, -4369.92, -15594.23, -15274.87, 0.000, 0.000, 0.000, 10:15:38.455, 1561533338455
108, -4780.52, 2576.87, 11048.65, 10162.20, -8722.39, -4514.74, -15637.10, -15294.54, 0.000, 0.000, 0.000, 10:15:38.455, 1561533338455
109, -4735.69, 2584.80, 11059.93, 10189.13, -8684.68, -4480.12, -15615.08, -15279.25, 0.000, 0.000, 0.000, 10:15:38.455, 1561533338455
110, -4704.35, 2577.36, 11059.91, 10212.47, -8656.50, -4413.17, -15591.77, -15267.87, 0.000, 0.000, 0.000, 10:15:38.455, 1561533338455
111, -4676.57, 2551.65, 11048.74, 10235.22, -8617.20, -4296.21, -15558.09, -15252.74, 0.000, 0.000, 0.000, 10:15:38.455, 1561533338455
112, -4751.89, 2546.31, 11035.37, 10192.80, -8671.85, -4378.48, -15589.83, -15275.00, 0.000, 0.000, 0.000, 10:15:38.455, 1561533338455
113, -4787.72, 2572.82, 11042.16, 10162.18, -8724.76, -4519.81, -15633.28, -15293.38, 0.000, 0.000, 0.000, 10:15:38.455, 1561533338455
114, -4738.50, 2579.97, 11054.37, 10188.06, -8685.87, -4482.58, -15610.50, -15273.93, 0.000, 0.000, 0.000, 10:15:38.455, 1561533338455
115, -4715.23, 2562.43, 11047.42, 10200.31, -8659.31, -4419.30, -15594.10, -15267.27, 0.000, 0.000, 0.000, 10:15:38.455, 1561533338455
116, -4679.40, 2541.84, 11042.86, 10229.75, -8616.08, -4295.80, -15556.61, -15248.76, 0.010, -0.052, -1.028, 10:15:38.455, 1561533338455
117, -4752.70, 2538.78, 11028.98, 10184.48, -8670.89, -4371.91, -15587.37, -15270.55, 0.000, 0.000, 0.000, 10:15:38.455, 1561533338455
118, -4790.90, 2567.21, 11034.43, 10153.30, -8724.15, -4518.23, -15631.87, -15291.41, 0.000, 0.000, 0.000, 10:15:38.455, 1561533338455
119, -4741.50, 2581.25, 11049.16, 10186.25, -8685.13, -4481.97, -15610.95, -15274.31, 0.000, 0.000, 0.000, 10:15:38.455, 1561533338455
120, -4711.30, 2568.75, 11050.30, 10209.54, -8654.24, -4411.83, -15588.87, -15262.31, 0.000, 0.000, 0.000, 10:15:38.516, 1561533338516
121, -4679.09, 2542.67, 11041.18, 10232.23, -8613.07, -4293.55, -15556.46, -15248.74, 0.000, 0.000, 0.000, 10:15:38.516, 1561533338516
122, -4754.55, 2535.58, 11026.88, 10183.81, -8670.49, -4378.24, -15593.16, -15276.32, 0.000, 0.000, 0.000, 10:15:38.516, 1561533338516
123, -4793.53, 2562.54, 11032.91, 10149.79, -8724.60, -4525.38, -15639.38, -15298.61, 0.000, 0.000, 0.000, 10:15:38.516, 1561533338516
124, -4741.74, 2576.02, 11051.86, 10183.81, -8683.16, -4486.89, -15614.97, -15280.39, 0.000, 0.000, 0.000, 10:15:38.516, 1561533338516
125, -4714.27, 2568.24, 11051.57, 10204.64, -8655.27, -4421.09, -15595.93, -15271.92, 0.014, -0.052, -1.026, 10:15:38.516, 1561533338516
126, -4685.31, 2537.57, 11038.92, 10225.72, -8617.80, -4304.81, -15565.69, -15260.36, 0.000, 0.000, 0.000, 10:15:38.517, 1561533338517
127, -4746.12, 2539.43, 11034.14, 10189.85, -8663.96, -4368.49, -15587.30, -15275.94, 0.000, 0.000, 0.000, 10:15:38.517, 1561533338517
128, -4790.34, 2564.19, 11039.33, 10153.46, -8722.46, -4517.22, -15635.83, -15299.86, 0.000, 0.000, 0.000, 10:15:38.517, 1561533338517
129, -4746.21, 2575.05, 11051.98, 10182.27, -8685.75, -4484.79, -15615.00, -15284.17, 0.000, 0.000, 0.000, 10:15:38.517, 1561533338517
130, -4711.28, 2568.62, 11056.76, 10206.79, -8652.07, -4415.97, -15589.54, -15269.53, 0.000, 0.000, 0.000, 10:15:38.517, 1561533338517
131, -4676.16, 2542.58, 11048.62, 10237.86, -8608.13, -4294.73, -15554.13, -15253.90, 0.000, 0.000, 0.000, 10:15:38.517, 1561533338517
132, -4755.62, 2531.92, 11027.30, 10190.23, -8666.53, -4370.55, -15588.64, -15282.83, 0.000, 0.000, 0.000, 10:15:38.517, 1561533338517
133, -4797.33, 2564.21, 11034.65, 10155.87, -8723.19, -4518.07, -15634.60, -15304.98, 0.000, 0.000, 0.000, 10:15:38.517, 1561533338517
134, -4748.92, 2577.42, 11046.90, 10182.65, -8685.98, -4486.64, -15613.68, -15285.46, 0.000, 0.000, 0.000, 10:15:38.517, 1561533338517
135, -4719.95, 2570.52, 11047.04, 10204.42, -8658.22, -4421.80, -15591.21, -15274.09, 0.008, -0.052, -1.022, 10:15:38.575, 1561533338575
136, -4680.81, 2549.33, 11042.07, 10236.50, -8613.78, -4295.16, -15554.51, -15254.35, 0.000, 0.000, 0.000, 10:15:38.575, 1561533338575
137, -4753.70, 2531.96, 11022.18, 10191.88, -8669.15, -4364.67, -15587.59, -15278.04, 0.000, 0.000, 0.000, 10:15:38.575, 1561533338575
138, -4798.45, 2558.85, 11027.57, 10156.99, -8729.61, -4518.83, -15637.41, -15300.42, 0.000, 0.000, 0.000, 10:15:38.575, 1561533338575
139, -4746.42, 2574.97, 11046.25, 10186.56, -8686.38, -4486.00, -15611.71, -15277.35, 0.000, 0.000, 0.000, 10:15:38.575, 1561533338575
140, -4722.57, 2559.70, 11043.01, 10202.07, -8659.27, -4423.79, -15594.43, -15268.16, 0.000, 0.000, 0.000, 10:15:38.575, 1561533338575
141, -4688.19, 2540.81, 11037.98, 10229.83, -8614.43, -4301.28, -15559.70, -15249.14, 0.000, 0.000, 0.000, 10:15:38.575, 1561533338575
142, -4753.12, 2535.87, 11024.30, 10190.21, -8664.00, -4366.90, -15588.58, -15268.72, 0.000, 0.000, 0.000, 10:15:38.575, 1561533338575
143, -4801.65, 2559.41, 11024.04, 10148.59, -8728.04, -4520.24, -15641.10, -15294.81, 0.000, 0.000, 0.000, 10:15:38.576, 1561533338576
144, -4754.19, 2571.39, 11039.44, 10177.15, -8691.36, -4485.01, -15617.77, -15275.34, 0.000, 0.000, 0.000, 10:15:38.576, 1561533338576
145, -4718.88, 2564.33, 11044.60, 10207.10, -8659.94, -4418.31, -15595.59, -15261.48, 0.012, -0.056, -1.024, 10:15:38.576, 1561533338576
146, -4684.81, 2541.37, 11038.63, 10235.62, -8614.94, -4295.87, -15560.77, -15244.13, 0.000, 0.000, 0.000, 10:15:38.576, 1561533338576
147, -4752.29, 2534.71, 11026.05, 10192.64, -8665.37, -4359.64, -15589.76, -15266.40, 0.000, 0.000, 0.000, 10:15:38.577, 1561533338577
148, -4793.31, 2565.71, 11031.77, 10155.85, -8724.44, -4514.07, -15637.97, -15290.18, 0.000, 0.000, 0.000, 10:15:38.577, 1561533338577
149, -4743.91, 2571.14, 11042.68, 10184.97, -8685.46, -4481.23, -15614.30, -15272.57, 0.000, 0.000, 0.000, 10:15:38.577, 1561533338577
150, -4717.02, 2557.91, 11041.78, 10204.71, -8656.32, -4416.50, -15593.56, -15262.46, 0.000, 0.000, 0.000, 10:15:38.634, 1561533338634
151, -4686.29, 2540.07, 11033.29, 10227.58, -8614.43, -4295.54, -15559.32, -15247.00, 0.000, 0.000, 0.000, 10:15:38.634, 1561533338634
152, -4745.88, 2540.16, 11022.74, 10190.45, -8658.35, -4351.68, -15578.54, -15259.40, 0.000, 0.000, 0.000, 10:15:38.634, 1561533338634
153, -4795.48, 2563.92, 11026.14, 10150.78, -8720.91, -4508.82, -15628.27, -15283.67, 0.000, 0.000, 0.000, 10:15:38.634, 1561533338634
154, -4750.71, 2575.70, 11041.09, 10179.77, -8684.59, -4479.89, -15610.19, -15269.17, 0.000, 0.000, 0.000, 10:15:38.634, 1561533338634
155, -4718.27, 2568.35, 11044.09, 10204.73, -8654.77, -4413.49, -15586.59, -15255.98, 0.010, -0.058, -1.028, 10:15:38.634, 1561533338634
156, -4681.06, 2543.05, 11037.47, 10235.76, -8610.70, -4289.03, -15548.16, -15238.55, 0.000, 0.000, 0.000, 10:15:38.634, 1561533338634
157, -4750.08, 2528.30, 11021.04, 10193.04, -8660.83, -4350.25, -15577.29, -15262.93, 0.000, 0.000, 0.000, 10:15:38.634, 1561533338634
158, -4800.31, 2558.11, 11022.72, 10151.45, -8725.03, -4510.13, -15629.43, -15289.58, 0.000, 0.000, 0.000, 10:15:38.634, 1561533338634
159, -4748.58, 2571.41, 11038.50, 10184.59, -8686.31, -4483.29, -15607.95, -15271.67, 0.000, 0.000, 0.000, 10:15:38.634, 1561533338634
160, -4715.61, 2562.38, 11041.94, 10206.14, -8656.29, -4421.11, -15586.56, -15260.34, 0.000, 0.000, 0.000, 10:15:38.634, 1561533338634
161, -4679.05, 2541.35, 11036.49, 10230.50, -8613.16, -4298.46, -15550.49, -15242.79, 0.000, 0.000, 0.000, 10:15:38.634, 1561533338634
162, -4749.61, 2528.88, 11015.34, 10184.55, -8665.35, -4357.94, -15581.94, -15270.78, 0.000, 0.000, 0.000, 10:15:38.634, 1561533338634
163, -4800.82, 2554.69, 11015.32, 10142.91, -8734.32, -4520.13, -15636.27, -15300.04, 0.000, 0.000, 0.000, 10:15:38.634, 1561533338634
164, -4747.51, 2568.13, 11035.77, 10179.41, -8695.14, -4488.70, -15613.01, -15278.51, 0.000, 0.000, 0.000, 10:15:38.634, 1561533338634
165, -4713.96, 2566.63, 11042.61, 10205.11, -8659.36, -4416.97, -15587.32, -15262.04, 0.012, -0.058, -1.028, 10:15:38.694, 1561533338694
166, -4678.51, 2544.90, 11037.31, 10232.25, -8615.37, -4294.08, -15552.21, -15245.21, 0.000, 0.000, 0.000, 10:15:38.694, 1561533338694
167, -4746.01, 2524.88, 11019.25, 10186.90, -8665.53, -4351.59, -15581.15, -15267.58, 0.000, 0.000, 0.000, 10:15:38.694, 1561533338694
168, -4795.21, 2552.52, 11024.55, 10146.82, -8730.26, -4512.12, -15633.35, -15290.45, 0.000, 0.000, 0.000, 10:15:38.694, 1561533338694
169, -4753.48, 2560.64, 11036.71, 10175.47, -8693.87, -4485.95, -15615.80, -15273.48, 0.000, 0.000, 0.000, 10:15:38.694, 1561533338694
170, -4723.57, 2555.36, 11038.81, 10198.85, -8663.04, -4419.86, -15593.29, -15259.29, 0.000, 0.000, 0.000, 10:15:38.694, 1561533338694
171, -4684.86, 2543.36, 11034.25, 10230.08, -8617.63, -4293.73, -15555.81, -15240.27, 0.000, 0.000, 0.000, 10:15:38.694, 1561533338694
172, -4746.37, 2531.31, 11017.49, 10190.81, -8663.51, -4344.53, -15580.80, -15261.35, 0.000, 0.000, 0.000, 10:15:38.694, 1561533338694
173, -4797.11, 2550.24, 11016.46, 10148.76, -8732.54, -4507.56, -15636.77, -15290.34, 0.000, 0.000, 0.000, 10:15:38.694, 1561533338694
174, -4755.36, 2555.41, 11024.42, 10169.53, -8702.83, -4490.73, -15624.90, -15280.34, 0.000, 0.000, 0.000, 10:15:38.694, 1561533338694
175, -4712.66, 2566.61, 11042.75, 10206.59, -8657.97, -4410.36, -15587.77, -15255.15, 0.012, -0.052, -1.028, 10:15:38.694, 1561533338694
176, -4678.67, 2548.66, 11039.21, 10232.20, -8614.65, -4286.66, -15551.23, -15236.85, 0.000, 0.000, 0.000, 10:15:38.694, 1561533338694
177, -4745.52, 2532.74, 11018.31, 10189.53, -8662.69, -4336.39, -15576.13, -15258.22, 0.000, 0.000, 0.000, 10:15:38.695, 1561533338695
178, -4795.99, 2557.40, 11021.78, 10150.28, -8727.62, -4498.00, -15627.15, -15283.79, 0.000, 0.000, 0.000, 10:15:38.695, 1561533338695
179, -4751.40, 2564.24, 11032.04, 10177.71, -8694.96, -4478.53, -15611.04, -15270.29, 0.000, 0.000, 0.000, 10:15:38.695, 1561533338695
180, -4722.50, 2559.01, 11033.22, 10200.73, -8664.50, -4415.81, -15589.09, -15260.68, 0.000, 0.000, 0.000, 10:15:38.754, 1561533338754
181, -4681.46, 2540.92, 11030.43, 10230.75, -8615.26, -4292.52, -15551.25, -15241.32, 0.000, 0.000, 0.000, 10:15:38.754, 1561533338754
182, -4742.70, 2529.37, 11017.15, 10192.31, -8656.88, -4338.72, -15575.92, -15261.26, 0.000, 0.000, 0.000, 10:15:38.755, 1561533338755
183, -4802.54, 2548.90, 11014.69, 10144.70, -8730.41, -4509.04, -15636.36, -15296.10, 0.000, 0.000, 0.000, 10:15:38.755, 1561533338755
184, -4750.53, 2562.02, 11032.28, 10178.09, -8692.30, -4486.58, -15615.29, -15277.60, 0.000, 0.000, 0.000, 10:15:38.755, 1561533338755
185, -4713.89, 2561.13, 11040.49, 10206.77, -8656.81, -4419.19, -15588.37, -15259.80, 0.006, -0.056, -1.022, 10:15:38.755, 1561533338755
186, -4680.34, 2541.15, 11033.07, 10233.30, -8614.72, -4295.80, -15552.70, -15241.70, 0.000, 0.000, 0.000, 10:15:38.755, 1561533338755
187, -4748.81, 2526.93, 11014.07, 10192.95, -8660.21, -4340.98, -15576.93, -15264.70, 0.000, 0.000, 0.000, 10:15:38.755, 1561533338755
188, -4807.06, 2553.66, 11013.98, 10149.84, -8730.19, -4510.07, -15633.35, -15293.76, 0.000, 0.000, 0.000, 10:15:38.755, 1561533338755
189, -4764.48, 2563.16, 11027.37, 10175.83, -8696.50, -4492.70, -15618.46, -15278.00, 0.000, 0.000, 0.000, 10:15:38.755, 1561533338755
190, -4727.19, 2555.09, 11034.14, 10200.31, -8663.36, -4425.58, -15593.11, -15261.79, 0.000, 0.000, 0.000, 10:15:38.755, 1561533338755
191, -4687.38, 2538.29, 11030.99, 10230.79, -8617.38, -4302.35, -15558.09, -15244.69, 0.000, 0.000, 0.000, 10:15:38.755, 1561533338755
192, -4761.95, 2515.87, 11006.83, 10183.92, -8665.08, -4350.97, -15589.09, -15273.08, 0.000, 0.000, 0.000, 10:15:38.755, 1561533338755
193, -4819.01, 2530.80, 11008.39, 10137.59, -8733.70, -4519.57, -15644.57, -15301.06, 0.000, 0.000, 0.000, 10:15:38.755, 1561533338755
194, -4768.90, 2543.05, 11023.23, 10164.01, -8698.94, -4501.60, -15627.24, -15286.11, 0.000, 0.000, 0.000, 10:15:38.755, 1561533338755
195, -4734.75, 2544.50, 11029.83, 10189.62, -8664.18, -4433.22, -15600.42, -15268.41, 0.008, -0.052, -1.026, 10:15:38.816, 1561533338816
196, -4692.12, 2522.71, 11028.86, 10226.33, -8615.61, -4306.42, -15560.99, -15246.19, 0.000, 0.000, 0.000, 10:15:38.816, 1561533338816
197, -4753.34, 2503.93, 11009.98, 10188.98, -8656.50, -4344.08, -15581.89, -15265.19, 0.000, 0.000, 0.000, 10:15:38.816, 1561533338816
198, -4807.26, 2532.79, 11011.85, 10147.20, -8725.76, -4509.62, -15636.43, -15294.27, 0.000, 0.000, 0.000, 10:15:38.816, 1561533338816
199, -4774.73, 2537.17, 11019.72, 10168.37, -8696.04, -4496.08, -15623.58, -15283.56, 0.000, 0.000, 0.000, 10:15:38.816, 1561533338816
200, -4759.96, 2519.89, 11014.34, 10179.61, -8669.66, -4440.62, -15606.79, -15276.79, 0.000, 0.000, 0.000, 10:15:38.816, 1561533338816
201, -4714.27, 2502.19, 11019.66, 10212.09, -8613.45, -4309.51, -15560.08, -15249.10, 0.000, 0.000, 0.000, 10:15:38.816, 1561533338816
202, -4770.71, 2488.35, 11010.20, 10180.50, -8645.39, -4339.90, -15573.82, -15260.00, 0.000, 0.000, 0.000, 10:15:38.816, 1561533338816
203, -4840.74, 2504.92, 11003.99, 10129.54, -8722.03, -4512.28, -15633.46, -15293.13, 0.000, 0.000, 0.000, 10:15:38.816, 1561533338816
204, -4804.82, 2508.54, 11009.98, 10149.05, -8694.76, -4502.56, -15621.48, -15282.47, 0.000, 0.000, 0.000, 10:15:38.816, 1561533338816
205, -4782.42, 2490.52, 11008.81, 10167.34, -8664.68, -4440.93, -15598.48, -15269.35, 0.006, -0.056, -1.028, 10:15:38.816, 1561533338816
206, -4749.25, 2464.06, 11003.45, 10193.38, -8618.05, -4317.31, -15559.72, -15249.16, 0.000, 0.000, 0.000, 10:15:38.816, 1561533338816
207, -4811.39, 2435.09, 10983.74, 10154.89, -8656.34, -4348.06, -15578.56, -15267.07, 0.000, 0.000, 0.000, 10:15:38.816, 1561533338816
208, -4883.90, 2445.19, 10978.28, 10104.84, -8729.21, -4516.15, -15633.99, -15294.85, 0.000, 0.000, 0.000, 10:15:38.816, 1561533338816
209, -4848.85, 2449.39, 10988.25, 10126.32, -8697.15, -4502.78, -15615.73, -15279.96, 0.000, 0.000, 0.000, 10:15:38.816, 1561533338816
210, -4831.60, 2428.70, 10985.77, 10142.95, -8667.54, -4444.06, -15595.37, -15271.69, 0.000, 0.000, 0.000, 10:15:38.875, 1561533338875
211, -4800.95, 2398.10, 10979.80, 10171.05, -8618.61, -4318.89, -15556.41, -15252.41, 0.000, 0.000, 0.000, 10:15:38.875, 1561533338875
212, -4857.23, 2383.66, 10964.94, 10137.61, -8649.88, -4342.25, -15570.25, -15267.34, 0.000, 0.000, 0.000, 10:15:38.875, 1561533338875
213, -4929.12, 2398.83, 10957.12, 10081.20, -8730.97, -4515.75, -15632.43, -15303.48, 0.000, 0.000, 0.000, 10:15:38.876, 1561533338876
214, -4882.31, 2407.84, 10973.99, 10109.87, -8697.78, -4502.20, -15614.53, -15284.93, 0.000, 0.000, 0.000, 10:15:38.876, 1561533338876
215, -4853.55, 2394.07, 10973.39, 10133.21, -8662.26, -4436.20, -15591.12, -15271.65, 0.006, -0.060, -1.030, 10:15:38.876, 1561533338876
216, -4813.69, 2374.05, 10969.48, 10162.91, -8609.31, -4308.97, -15552.23, -15251.27, 0.000, 0.000, 0.000, 10:15:38.876, 1561533338876
217, -4867.67, 2357.19, 10953.83, 10128.65, -8639.78, -4331.86, -15566.04, -15264.21, 0.000, 0.000, 0.000, 10:15:38.876, 1561533338876
218, -4932.60, 2384.60, 10952.24, 10077.10, -8716.49, -4506.16, -15627.80, -15297.80, 0.000, 0.000, 0.000, 10:15:38.876, 1561533338876
219, -4889.00, 2400.67, 10969.19, 10098.76, -8686.20, -4496.19, -15614.84, -15282.98, 0.000, 0.000, 0.000, 10:15:38.876, 1561533338876
220, -4857.35, 2393.72, 10975.33, 10123.62, -8651.67, -4429.71, -15588.93, -15265.41, 0.000, 0.000, 0.000, 10:15:38.876, 1561533338876
221, -4813.83, 2375.95, 10975.51, 10160.34, -8603.50, -4304.07, -15550.44, -15245.36, 0.000, 0.000, 0.000, 10:15:38.876, 1561533338876
222, -4863.83, 2355.83, 10955.84, 10125.16, -8641.21, -4329.76, -15568.82, -15263.83, 0.000, 0.000, 0.000, 10:15:38.876, 1561533338876
223, -4927.69, 2379.28, 10952.31, 10072.99, -8723.15, -4505.89, -15630.62, -15298.43, 0.000, 0.000, 0.000, 10:15:38.876, 1561533338876
224, -4875.18, 2404.06, 10976.72, 10106.65, -8686.71, -4488.83, -15611.96, -15279.05, 0.000, 0.000, 0.000, 10:15:38.876, 1561533338876
225, -4836.29, 2411.95, 10988.25, 10137.61, -8652.52, -4422.11, -15586.97, -15262.28, 0.012, -0.062, -1.034, 10:15:38.934, 1561533338934
226, -4789.67, 2406.23, 10988.03, 10174.58, -8605.02, -4299.00, -15550.87, -15243.02, 0.000, 0.000, 0.000, 10:15:38.934, 1561533338934
227, -4838.28, 2391.37, 10970.71, 10142.15, -8638.52, -4321.91, -15566.09, -15258.04, 0.000, 0.000, 0.000, 10:15:38.934, 1561533338934
228, -4902.34, 2408.49, 10970.12, 10088.62, -8717.00, -4501.69, -15624.00, -15290.05, 0.000, 0.000, 0.000, 10:15:38.934, 1561533338934
229, -4856.34, 2431.82, 10987.54, 10113.74, -8689.33, -4500.28, -15612.51, -15277.04, 0.000, 0.000, 0.000, 10:15:38.934, 1561533338934
230, -4819.80, 2432.03, 10995.05, 10139.62, -8655.65, -4438.10, -15590.45, -15265.59, 0.000, 0.000, 0.000, 10:15:38.934, 1561533338934
231, -4781.84, 2413.05, 10991.31, 10171.52, -8609.87, -4317.28, -15554.69, -15249.41, 0.000, 0.000, 0.000, 10:15:38.934, 1561533338934
232, -4829.45, 2404.78, 10974.53, 10143.87, -8641.43, -4335.88, -15568.46, -15264.50, 0.000, 0.000, 0.000, 10:15:38.935, 1561533338935
233, -4898.54, 2429.95, 10968.69, 10092.46, -8724.27, -4513.71, -15630.35, -15299.19, 0.000, 0.000, 0.000, 10:15:38.935, 1561533338935
234, -4857.10, 2447.38, 10981.70, 10113.90, -8700.80, -4513.93, -15621.05, -15289.35, 0.012, -0.060, -1.034, 10:15:38.935, 1561533338935
235, -4810.54, 2453.73, 10993.12, 10143.29, -8663.49, -4450.99, -15593.65, -15272.28, 0.000, 0.000, 0.000, 10:15:38.935, 1561533338935
236, -4761.01, 2437.59, 10995.16, 10179.99, -8608.73, -4324.12, -15550.91, -15248.52, 0.000, 0.000, 0.000, 10:15:38.935, 1561533338935
237, -4812.89, 2418.59, 10977.01, 10146.95, -8642.46, -4344.31, -15567.77, -15266.93, 0.000, 0.000, 0.000, 10:15:38.935, 1561533338935
238, -4878.02, 2448.88, 10976.00, 10094.34, -8723.80, -4520.73, -15630.80, -15301.53, 0.000, 0.000, 0.000, 10:15:38.935, 1561533338935
239, -4832.54, 2472.17, 10992.23, 10118.39, -8695.21, -4512.24, -15618.62, -15286.31, 0.000, 0.000, 0.000, 10:15:38.935, 1561533338935
240, -4797.35, 2465.24, 10996.19, 10144.05, -8663.63, -4447.04, -15597.18, -15272.59, 0.000, 0.000, 0.000, 10:15:38.995, 1561533338995
241, -4755.22, 2444.59, 10993.06, 10173.35, -8618.12, -4325.53, -15562.38, -15254.42, 0.000, 0.000, 0.000, 10:15:38.995, 1561533338995
242, -4799.12, 2435.02, 10979.69, 10150.87, -8644.94, -4338.07, -15574.96, -15268.16, 0.000, 0.000, 0.000, 10:15:38.995, 1561533338995
243, -4864.39, 2463.39, 10982.15, 10105.31, -8724.35, -4514.05, -15634.62, -15299.34, 0.000, 0.000, 0.000, 10:15:38.995, 1561533338995
244, -4819.86, 2482.74, 10994.51, 10129.07, -8699.10, -4516.10, -15624.81, -15287.07, 0.010, -0.062, -1.036, 10:15:38.995, 1561533338995
245, -4784.50, 2480.17, 10999.47, 10154.58, -8664.03, -4453.58, -15600.09, -15271.29, 0.000, 0.000, 0.000, 10:15:38.995, 1561533338995
246, -4741.68, 2460.37, 10992.61, 10183.83, -8619.41, -4334.41, -15568.82, -15256.70, 0.000, 0.000, 0.000, 10:15:38.995, 1561533338995
247, -4789.17, 2445.12, 10974.44, 10153.35, -8648.31, -4346.54, -15581.29, -15271.58, 0.000, 0.000, 0.000, 10:15:38.995, 1561533338995
248, -4849.97, 2479.26, 10982.33, 10108.98, -8724.38, -4517.15, -15633.66, -15295.14, 0.000, 0.000, 0.000, 10:15:38.995, 1561533338995
249, -4808.13, 2497.99, 10998.60, 10132.34, -8699.72, -4519.30, -15623.98, -15284.03, 0.000, 0.000, 0.000, 10:15:38.995, 1561533338995
250, -4769.91, 2497.94, 11009.87, 10162.60, -8661.39, -4451.22, -15594.95, -15266.55, 0.000, 0.000, 0.000, 10:15:38.995, 1561533338995
251, -4726.88, 2479.81, 11008.97, 10196.28, -8612.06, -4326.43, -15556.14, -15246.44, 0.000, 0.000, 0.000, 10:15:38.995, 1561533338995
252, -4774.15, 2461.37, 10990.46, 10164.08, -8641.16, -4336.66, -15566.96, -15260.97, 0.000, 0.000, 0.000, 10:15:38.995, 1561533338995
253, -4843.20, 2488.69, 10990.31, 10105.76, -8722.19, -4515.23, -15627.49, -15293.67, 0.000, 0.000, 0.000, 10:15:38.995, 1561533338995
254, -4799.23, 2511.82, 11006.13, 10126.03, -8693.62, -4513.47, -15617.88, -15283.05, 0.002, -0.060, -1.022, 10:15:38.995, 1561533338995
255, -4766.78, 2507.96, 11008.26, 10155.13, -8661.73, -4451.06, -15598.39, -15274.35, 0.000, 0.000, 0.000, 10:15:39.055, 1561533339055
0, -4723.37, 2484.98, 11008.75, 10191.41, -8613.96, -4325.89, -15563.36, -15254.42, 0.000, 0.000, 0.000, 10:15:39.055, 1561533339055
1, -4768.43, 2465.91, 10994.24, 10162.69, -8641.85, -4331.99, -15577.82, -15270.51, 0.000, 0.000, 0.000, 10:15:39.055, 1561533339055
2, -4839.42, 2494.43, 10990.64, 10108.98, -8729.83, -4517.09, -15642.35, -15307.30, 0.000, 0.000, 0.000, 10:15:39.055, 1561533339055
3, -4786.51, 2527.29, 11013.62, 10141.30, -8696.37, -4514.27, -15623.82, -15286.87, 0.000, 0.000, 0.000, 10:15:39.055, 1561533339055
4, -4755.53, 2517.72, 11015.27, 10161.73, -8665.86, -4452.89, -15602.90, -15274.85, 0.000, 0.000, 0.000, 10:15:39.055, 1561533339055
5, -4711.75, 2499.89, 11013.51, 10194.45, -8618.94, -4332.91, -15566.31, -15254.82, 0.000, 0.000, 0.000, 10:15:39.055, 1561533339055
6, -4751.44, 2484.04, 11001.95, 10175.74, -8640.67, -4329.96, -15572.95, -15263.38, 0.000, 0.000, 0.000, 10:15:39.055, 1561533339055
7, -4820.76, 2510.39, 11004.17, 10124.38, -8723.59, -4506.11, -15634.60, -15295.79, 0.000, 0.000, 0.000, 10:15:39.055, 1561533339055
8, -4776.39, 2535.05, 11028.26, 10150.51, -8695.92, -4508.64, -15622.66, -15279.67, 0.008, -0.058, -1.024, 10:15:39.055, 1561533339055
9, -4748.16, 2525.77, 11027.93, 10173.69, -8664.23, -4450.54, -15602.90, -15270.89, 0.000, 0.000, 0.000, 10:15:39.055, 1561533339055
10, -4705.40, 2510.30, 11024.08, 10208.33, -8614.67, -4327.68, -15565.89, -15251.38, 0.000, 0.000, 0.000, 10:15:39.055, 1561533339055
11, -4744.81, 2498.34, 11010.94, 10186.05, -8634.86, -4322.25, -15569.80, -15258.06, 0.000, 0.000, 0.000, 10:15:39.055, 1561533339055
12, -4819.51, 2517.14, 11005.66, 10125.81, -8722.61, -4509.26, -15636.74, -15296.30, 0.000, 0.000, 0.000, 10:15:39.055, 1561533339055
13, -4775.47, 2532.25, 11024.77, 10146.75, -8699.05, -4516.37, -15628.54, -15284.39, 0.000, 0.000, 0.000, 10:15:39.055, 1561533339055
14, -4738.82, 2528.59, 11030.27, 10170.27, -8663.63, -4451.44, -15603.73, -15269.12, 0.000, 0.000, 0.000, 10:15:39.116, 1561533339116
15, -4695.79, 2517.01, 11028.71, 10206.95, -8614.59, -4328.79, -15567.34, -15250.73, 0.000, 0.000, 0.000, 10:15:39.116, 1561533339116
16, -4736.13, 2503.02, 11018.74, 10188.44, -8634.03, -4326.78, -15572.91, -15260.99, 0.000, 0.000, 0.000, 10:15:39.116, 1561533339116
17, -4810.92, 2525.88, 11015.70, 10135.38, -8718.25, -4506.69, -15637.03, -15296.37, 0.000, 0.000, 0.000, 10:15:39.116, 1561533339116
18, -4766.87, 2544.10, 11030.12, 10155.27, -8694.63, -4513.82, -15628.47, -15286.89, 0.012, -0.056, -1.028, 10:15:39.116, 1561533339116
19, -4731.84, 2532.09, 11029.92, 10173.08, -8664.00, -4454.37, -15606.59, -15275.83, 0.000, 0.000, 0.000, 10:15:39.116, 1561533339116
20, -4695.90, 2507.33, 11022.70, 10199.10, -8620.06, -4338.56, -15571.95, -15257.59, 0.000, 0.000, 0.000, 10:15:39.116, 1561533339116
21, -4735.82, 2491.39, 11010.31, 10179.68, -8635.60, -4327.45, -15570.38, -15260.25, 0.000, 0.000, 0.000, 10:15:39.116, 1561533339116
22, -4815.21, 2506.73, 11001.77, 10118.50, -8726.88, -4509.40, -15637.48, -15299.86, 0.000, 0.000, 0.000, 10:15:39.117, 1561533339117
23, -4778.58, 2527.00, 11016.73, 10141.81, -8707.50, -4518.65, -15632.30, -15291.74, 0.000, 0.000, 0.000, 10:15:39.117, 1561533339117
24, -4741.10, 2528.47, 11024.84, 10171.79, -8668.63, -4451.95, -15606.66, -15276.50, 0.000, 0.000, 0.000, 10:15:39.117, 1561533339117
25, -4699.90, 2514.57, 11023.08, 10202.19, -8619.26, -4333.94, -15572.82, -15260.65, 0.000, 0.000, 0.000, 10:15:39.117, 1561533339117
26, -4740.87, 2495.44, 11006.54, 10178.63, -8637.27, -4328.50, -15580.82, -15274.53, 0.000, 0.000, 0.000, 10:15:39.117, 1561533339117
27, -4814.61, 2514.48, 11005.28, 10124.74, -8722.12, -4510.38, -15643.63, -15310.12, 0.000, 0.000, 0.000, 10:15:39.117, 1561533339117
28, -4771.02, 2531.92, 11020.01, 10145.43, -8700.28, -4522.12, -15635.74, -15298.29, 0.012, -0.056, -1.024, 10:15:39.117, 1561533339117
29, -4738.88, 2526.62, 11022.61, 10168.34, -8666.96, -4463.84, -15611.26, -15283.09, 0.000, 0.000, 0.000, 10:15:39.117, 1561533339117
30, -4702.96, 2506.84, 11017.91, 10199.10, -8625.47, -4350.41, -15576.93, -15264.86, 0.000, 0.000, 0.000, 10:15:39.176, 1561533339176
31, -4733.67, 2497.63, 11011.32, 10186.11, -8635.06, -4331.68, -15568.57, -15260.85, 0.000, 0.000, 0.000, 10:15:39.176, 1561533339176
32, -4815.39, 2519.69, 11005.64, 10129.12, -8725.96, -4513.15, -15630.71, -15294.52, 0.000, 0.000, 0.000, 10:15:39.176, 1561533339176
33, -4777.42, 2538.73, 11020.82, 10152.52, -8705.38, -4527.37, -15624.09, -15284.73, 0.000, 0.000, 0.000, 10:15:39.177, 1561533339177
34, -4741.92, 2534.37, 11026.79, 10176.03, -8671.27, -4469.59, -15602.57, -15273.44, 0.000, 0.000, 0.000, 10:15:39.177, 1561533339177
35, -4698.98, 2515.60, 11029.24, 10208.67, -8622.57, -4349.58, -15569.20, -15256.21, 0.000, 0.000, 0.000, 10:15:39.178, 1561533339178
36, -4735.42, 2495.01, 11015.74, 10186.79, -8639.26, -4333.38, -15574.58, -15266.80, 0.000, 0.000, 0.000, 10:15:39.179, 1561533339179
37, -4812.02, 2516.74, 11011.61, 10130.59, -8730.30, -4516.73, -15641.68, -15305.13, 0.000, 0.000, 0.000, 10:15:39.180, 1561533339180
38, -4774.62, 2536.54, 11024.68, 10152.34, -8714.77, -4533.76, -15636.77, -15297.00, 0.008, -0.052, -1.024, 10:15:39.181, 1561533339181
39, -4742.48, 2531.96, 11029.07, 10173.15, -8680.95, -4474.01, -15611.35, -15281.53, 0.000, 0.000, 0.000, 10:15:39.182, 1561533339182
40, -4702.96, 2512.72, 11025.44, 10200.98, -8636.98, -4358.57, -15576.24, -15264.83, 0.000, 0.000, 0.000, 10:15:39.182, 1561533339182
41, -4741.14, 2492.71, 11006.11, 10180.68, -8656.47, -4343.59, -15579.68, -15273.82, 0.000, 0.000, 0.000, 10:15:39.182, 1561533339182
42, -4823.22, 2508.29, 10997.80, 10116.02, -8750.35, -4529.22, -15648.25, -15313.11, 0.000, 0.000, 0.000, 10:15:39.182, 1561533339182
43, -4789.44, 2520.18, 11011.47, 10135.62, -8733.74, -4549.12, -15645.84, -15305.89, 0.000, 0.000, 0.000, 10:15:39.182, 1561533339182
44, -4740.49, 2531.89, 11030.09, 10175.94, -8685.53, -4477.17, -15611.11, -15280.34, 0.000, 0.000, 0.000, 10:15:39.182, 1561533339182
45, -4693.89, 2518.17, 11034.88, 10210.97, -8634.08, -4357.74, -15574.23, -15260.03, 0.000, 0.000, 0.000, 10:15:39.237, 1561533339237
46, -4728.29, 2495.53, 11019.52, 10193.69, -8646.71, -4336.55, -15576.19, -15265.06, 0.000, 0.000, 0.000, 10:15:39.237, 1561533339237
47, -4808.46, 2512.87, 11012.91, 10135.13, -8735.44, -4514.69, -15642.40, -15299.48, 0.000, 0.000, 0.000, 10:15:39.237, 1561533339237
48, -4770.51, 2538.11, 11028.93, 10155.25, -8715.93, -4527.26, -15637.26, -15288.24, 0.012, -0.054, -1.026, 10:15:39.237, 1561533339237
49, -4736.07, 2537.08, 11032.58, 10178.09, -8681.48, -4463.40, -15611.75, -15271.65, 0.000, 0.000, 0.000, 10:15:39.237, 1561533339237
50, -4697.80, 2516.23, 11028.55, 10203.37, -8638.52, -4352.22, -15576.35, -15253.63, 0.000, 0.000, 0.000, 10:15:39.238, 1561533339238
51, -4732.69, 2495.13, 11011.18, 10184.44, -8651.38, -4333.38, -15573.60, -15260.29, 0.000, 0.000, 0.000, 10:15:39.238, 1561533339238
52, -4813.34, 2512.36, 11005.57, 10125.21, -8739.53, -4518.85, -15637.44, -15297.00, 0.000, 0.000, 0.000, 10:15:39.238, 1561533339238
53, -4786.04, 2524.07, 11015.86, 10135.76, -8725.81, -4545.63, -15638.17, -15295.10, 0.000, 0.000, 0.000, 10:15:39.238, 1561533339238
54, -4753.90, 2520.00, 11022.34, 10161.19, -8691.56, -4485.08, -15615.31, -15284.84, 0.000, 0.000, 0.000, 10:15:39.238, 1561533339238
55, -4704.86, 2515.29, 11032.11, 10203.46, -8637.34, -4360.38, -15571.95, -15260.12, 0.000, 0.000, 0.000, 10:15:39.238, 1561533339238
56, -4737.14, 2492.20, 11017.78, 10191.86, -8648.58, -4336.06, -15573.33, -15270.13, 0.000, 0.000, 0.000, 10:15:39.238, 1561533339238
57, -4816.06, 2514.77, 11015.70, 10131.38, -8736.83, -4517.49, -15639.31, -15309.67, 0.000, 0.000, 0.000, 10:15:39.238, 1561533339238
58, -4779.76, 2538.15, 11033.89, 10147.60, -8720.80, -4540.89, -15634.37, -15299.14, 0.004, -0.054, -1.026, 10:15:39.238, 1561533339238
59, -4746.84, 2525.99, 11033.07, 10168.28, -8689.22, -4483.87, -15612.29, -15285.80, 0.000, 0.000, 0.000, 10:15:39.238, 1561533339238
60, -4702.34, 2512.51, 11028.44, 10197.85, -8645.81, -4372.54, -15578.43, -15268.01, 0.000, 0.000, 0.000, 10:15:39.296, 1561533339296
61, -4734.75, 2488.82, 11008.88, 10180.03, -8656.85, -4344.89, -15577.56, -15273.84, 0.000, 0.000, 0.000, 10:15:39.296, 1561533339296
62, -4821.43, 2498.84, 11001.17, 10118.37, -8747.80, -4526.61, -15643.27, -15311.24, 0.000, 0.000, 0.000, 10:15:39.296, 1561533339296
63, -4790.81, 2523.42, 11020.15, 10131.93, -8732.47, -4552.83, -15642.35, -15303.37, 0.000, 0.000, 0.000, 10:15:39.296, 1561533339296
64, -4749.61, 2523.44, 11030.54, 10161.57, -8688.15, -4484.68, -15612.45, -15282.69, 0.000, 0.000, 0.000, 10:15:39.296, 1561533339296
65, -4706.81, 2501.70, 11028.44, 10189.65, -8641.97, -4369.48, -15580.15, -15266.02, 0.000, 0.000, 0.000, 10:15:39.296, 1561533339296
66, -4736.63, 2489.43, 11014.67, 10178.45, -8649.86, -4337.62, -15578.54, -15271.83, 0.000, 0.000, 0.000, 10:15:39.296, 1561533339296
67, -4816.58, 2517.57, 11017.44, 10131.84, -8732.78, -4510.40, -15636.12, -15301.45, 0.000, 0.000, 0.000, 10:15:39.296, 1561533339296
68, -4784.66, 2531.76, 11032.17, 10147.89, -8718.95, -4534.59, -15636.54, -15294.47, 0.004, -0.050, -1.032, 10:15:39.296, 1561533339296
69, -4746.30, 2524.92, 11033.58, 10171.14, -8686.42, -4477.52, -15616.65, -15283.83, 0.000, 0.000, 0.000, 10:15:39.296, 1561533339296
70, -4703.05, 2503.42, 11026.76, 10194.61, -8646.93, -4367.62, -15586.90, -15271.56, 0.000, 0.000, 0.000, 10:15:39.296, 1561533339296
71, -4729.79, 2487.48, 11011.77, 10180.53, -8655.58, -4334.88, -15583.57, -15275.25, 0.000, 0.000, 0.000, 10:15:39.296, 1561533339296
72, -4817.45, 2506.37, 11001.95, 10117.09, -8750.26, -4520.77, -15651.67, -15314.01, 0.000, 0.000, 0.000, 10:15:39.296, 1561533339296
73, -4785.24, 2529.41, 11018.25, 10133.07, -8737.10, -4548.67, -15649.89, -15305.18, 0.000, 0.000, 0.000, 10:15:39.296, 1561533339296
74, -4744.52, 2528.76, 11027.37, 10165.19, -8698.54, -4485.91, -15625.30, -15290.72, 0.000, 0.000, 0.000, 10:15:39.296, 1561533339296
75, -4699.68, 2516.49, 11029.54, 10199.17, -8651.06, -4374.33, -15590.43, -15272.52, 0.000, 0.000, 0.000, 10:15:39.356, 1561533339356
76, -4726.41, 2495.86, 11015.77, 10183.63, -8655.36, -4342.23, -15587.01, -15277.37, 0.000, 0.000, 0.000, 10:15:39.356, 1561533339356
77, -4814.70, 2513.30, 11004.34, 10117.00, -8749.70, -4531.35, -15657.17, -15320.58, 0.000, 0.000, 0.000, 10:15:39.356, 1561533339356
78, -4772.63, 2543.29, 11030.67, 10142.08, -8730.30, -4555.15, -15648.81, -15304.62, 0.002, -0.050, -1.032, 10:15:39.356, 1561533339356
79, -4730.17, 2537.06, 11040.04, 10172.08, -8692.06, -4488.16, -15621.97, -15288.03, 0.000, 0.000, 0.000, 10:15:39.356, 1561533339356
80, -4689.78, 2518.08, 11037.98, 10204.20, -8649.05, -4375.64, -15588.93, -15272.48, 0.000, 0.000, 0.000, 10:15:39.356, 1561533339356
81, -4717.47, 2495.21, 11024.42, 10193.24, -8654.06, -4338.25, -15583.90, -15276.57, 0.000, 0.000, 0.000, 10:15:39.356, 1561533339356
82, -4806.00, 2511.26, 11014.85, 10130.37, -8744.54, -4518.61, -15647.83, -15314.74, 0.000, 0.000, 0.000, 10:15:39.356, 1561533339356
83, -4778.09, 2528.79, 11023.75, 10143.13, -8735.53, -4553.32, -15651.21, -15312.93, 0.000, 0.000, 0.000, 10:15:39.356, 1561533339356
84, -4740.16, 2522.42, 11026.36, 10165.66, -8698.63, -4495.02, -15624.34, -15298.23, 0.000, 0.000, 0.000, 10:15:39.356, 1561533339356
85, -4697.42, 2506.59, 11026.99, 10197.94, -8651.51, -4384.05, -15587.37, -15278.11, 0.000, 0.000, 0.000, 10:15:39.356, 1561533339356
86, -4725.69, 2484.24, 11009.96, 10186.49, -8656.25, -4344.98, -15584.71, -15283.25, 0.000, 0.000, 0.000, 10:15:39.356, 1561533339356
87, -4812.13, 2503.13, 11002.15, 10123.55, -8747.58, -4524.98, -15652.08, -15319.91, 0.000, -0.052, -1.032, 10:15:39.357, 1561533339357
88, -4784.57, 2521.79, 11012.84, 10132.76, -8739.96, -4564.00, -15657.35, -15316.24, 0.000, 0.000, 0.000, 10:15:39.357, 1561533339357
89, -4740.76, 2526.57, 11024.19, 10164.92, -8696.30, -4495.41, -15624.76, -15292.33, 0.000, 0.000, 0.000, 10:15:39.357, 1561533339357
90, -4697.67, 2509.72, 11024.19, 10193.78, -8652.72, -4384.43, -15592.15, -15274.73, 0.000, 0.000, 0.000, 10:15:39.417, 1561533339417
91, -4722.41, 2486.32, 11007.94, 10183.30, -8656.76, -4345.51, -15588.53, -15282.31, 0.000, 0.000, 0.000, 10:15:39.417, 1561533339417
92, -4804.33, 2506.01, 11005.13, 10120.80, -8742.97, -4526.70, -15651.00, -15319.26, 0.000, 0.000, 0.000, 10:15:39.417, 1561533339417
93, -4774.60, 2529.90, 11023.70, 10129.21, -8730.34, -4562.44, -15649.35, -15311.06, 0.000, 0.000, 0.000, 10:15:39.417, 1561533339417
94, -4736.63, 2525.77, 11029.09, 10158.67, -8693.71, -4501.53, -15624.74, -15297.69, 0.000, 0.000, 0.000, 10:15:39.417, 1561533339417
95, -4698.31, 2506.41, 11026.27, 10193.60, -8652.36, -4389.57, -15589.58, -15279.81, 0.000, 0.000, 0.000, 10:15:39.417, 1561533339417
96, -4721.72, 2484.17, 11010.00, 10184.15, -8653.05, -4342.61, -15580.01, -15280.46, 0.000, 0.000, 0.000, 10:15:39.417, 1561533339417
97, -4804.42, 2498.57, 11004.30, 10121.74, -8739.96, -4519.17, -15641.46, -15314.45, 0.004, -0.050, -1.032, 10:15:39.417, 1561533339417
98, -4777.66, 2518.89, 11019.41, 10133.63, -8732.31, -4561.43, -15643.58, -15308.06, 0.000, 0.000, 0.000, 10:15:39.417, 1561533339417
99, -4739.20, 2519.51, 11026.29, 10161.80, -8694.78, -4503.09, -15618.91, -15293.62, 0.000, 0.000, 0.000, 10:15:39.417, 1561533339417
100, -4694.74, 2510.26, 11026.36, 10194.12, -8653.90, -4394.24, -15586.18, -15277.10, 0.000, 0.000, 0.000, 10:15:39.417, 1561533339417
101, -4714.21, 2490.72, 11009.91, 10187.28, -8655.98, -4346.56, -15577.24, -15278.74, 0.000, 0.000, 0.000, 10:15:39.417, 1561533339417
102, -4810.25, 2496.87, 10994.67, 10115.48, -8749.57, -4531.50, -15647.49, -15322.48, 0.000, 0.000, 0.000, 10:15:39.417, 1561533339417
103, -4779.43, 2528.56, 11014.07, 10128.31, -8737.94, -4568.27, -15647.56, -15313.69, 0.000, 0.000, 0.000, 10:15:39.417, 1561533339417
104, -4732.56, 2529.75, 11028.71, 10161.44, -8694.98, -4501.91, -15617.43, -15291.86, 0.000, 0.000, 0.000, 10:15:39.417, 1561533339417
105, -4694.07, 2506.84, 11028.48, 10188.53, -8657.30, -4399.23, -15588.69, -15279.16, 0.000, 0.000, 0.000, 10:15:39.476, 1561533339476
106, -4716.08, 2483.35, 11013.49, 10181.62, -8660.76, -4352.11, -15579.88, -15280.12, 0.000, 0.000, 0.000, 10:15:39.477, 1561533339477
107, -4802.92, 2504.18, 11004.52, 10118.30, -8749.77, -4528.55, -15643.52, -15314.83, 0.006, -0.052, -1.026, 10:15:39.477, 1561533339477
108, -4779.23, 2519.20, 11018.07, 10124.65, -8746.93, -4573.26, -15651.27, -15311.37, 0.000, 0.000, 0.000, 10:15:39.478, 1561533339478
109, -4741.07, 2516.47, 11024.57, 10152.36, -8710.14, -4510.98, -15627.11, -15294.81, 0.000, 0.000, 0.000, 10:15:39.480, 1561533339480
110, -4699.48, 2503.22, 11021.53, 10181.67, -8669.77, -4404.37, -15594.79, -15279.58, 0.000, 0.000, 0.000, 10:15:39.480, 1561533339480
111, -4717.54, 2477.15, 11008.90, 10174.60, -8667.49, -4350.79, -15583.57, -15279.29, 0.000, 0.000, 0.000, 10:15:39.480, 1561533339480
112, -4805.25, 2493.81, 11003.41, 10113.29, -8755.45, -4527.14, -15648.66, -15316.04, 0.000, 0.000, 0.000, 10:15:39.480, 1561533339480
113, -4781.51, 2522.82, 11019.10, 10124.22, -8750.86, -4573.10, -15656.28, -15313.94, 0.000, 0.000, 0.000, 10:15:39.480, 1561533339480
114, -4749.08, 2522.84, 11022.14, 10144.83, -8720.53, -4519.46, -15636.25, -15303.50, 0.000, 0.000, 0.000, 10:15:39.480, 1561533339480
115, -4698.20, 2512.25, 11028.86, 10178.49, -8674.51, -4408.37, -15597.65, -15280.26, 0.000, 0.000, 0.000, 10:15:39.480, 1561533339480
116, -4707.41, 2490.34, 11019.45, 10178.94, -8665.59, -4348.55, -15580.44, -15274.58, 0.000, 0.000, 0.000, 10:15:39.480, 1561533339480
117, -4802.99, 2499.64, 11005.15, 10113.74, -8758.69, -4531.97, -15650.04, -15317.05, 0.006, -0.054, -1.026, 10:15:39.480, 1561533339480
118, -4777.01, 2527.33, 11022.07, 10127.06, -8755.36, -4577.59, -15655.70, -15312.11, 0.000, 0.000, 0.000, 10:15:39.481, 1561533339481
119, -4736.98, 2523.78, 11029.42, 10155.89, -8718.28, -4516.19, -15630.44, -15297.22, 0.000, 0.000, 0.000, 10:15:39.481, 1561533339481
120, -4698.40, 2504.96, 11025.38, 10183.10, -8679.67, -4409.31, -15599.57, -15283.47, 0.000, 0.000, 0.000, 10:15:39.536, 1561533339536
121, -4715.97, 2482.56, 11009.15, 10174.58, -8675.85, -4349.74, -15586.45, -15282.94, 0.000, 0.000, 0.000, 10:15:39.536, 1561533339536
122, -4806.99, 2494.81, 10997.86, 10107.86, -8763.69, -4527.84, -15650.47, -15319.21, 0.000, 0.000, 0.000, 10:15:39.536, 1561533339536
