%OpenBCI Raw EEG Data
%Number of channels = 8
%Sample Rate = 250.0 Hz
%First Column = SampleIndex
%Last Column = Timestamp 
%Other Columns = EEG data in microvolts followed by Accel Data (in G) interleaved with Aux Data
117, 164636.89, 170525.16, 151064.23, 152901.27, 161713.17, 47535.30, 170588.00, 161724.77, 0.417, 0.000, 0.000, 12:41:51.236, 3231711236
1, 6974.84, 6893.66, -3749.68, 7290.83, 6112.71, 6483.73, -2792.47, 5808.39, 0.000, 0.000, 0.000, 11:33:31.127, 1561451611127
2, 6972.31, 6892.07, -3750.67, 7288.81, 6111.44, 6480.69, -2793.99, 5807.94, 0.000, 0.000, 0.000, 11:33:31.128, 1561451611128
3, 6970.57, 6891.71, -3748.92, 7288.41, 6111.84, 6479.17, -2792.16, 5809.22, 0.000, 0.000, 0.000, 11:33:31.128, 1561451611128
4, 6971.26, 6893.68, -3750.56, 7290.13, 6110.59, 6478.25, -2792.20, 5807.39, 0.000, 0.000, 0.000, 11:33:31.128, 1561451611128
5, 6970.48, 6893.03, -3749.93, 7289.78, 6110.32, 6476.82, -2793.05, 5806.27, 0.000, 0.000, 0.000, 11:33:31.128, 1561451611128
6, 6968.49, 6891.69, -3747.25, 7288.79, 6111.50, 6474.85, -2793.90, 5807.99, 0.000, 0.000, 0.000, 11:33:31.128, 1561451611128
7, 6965.61, 6890.22, -3746.82, 7286.71, 6111.12, 6472.71, -2794.10, 5808.08, 0.010, 0.042, -1.030, 11:33:31.129, 1561451611129
8, 6964.00, 6889.34, -3748.10, 7285.75, 6109.96, 6471.19, -2793.16, 5808.55, 0.000, 0.000, 0.000, 11:33:31.129, 1561451611129
9, 6965.79, 6891.82, -3748.92, 7287.92, 6110.59, 6471.46, -2795.15, 5808.19, 0.000, 0.000, 0.000, 11:33:31.129, 1561451611129
10, 6966.19, 6892.96, -3749.06, 7288.34, 6111.57, 6471.48, -2795.40, 5807.16, 0.000, 0.000, 0.000, 11:33:31.129, 1561451611129
11, 6963.64, 6891.06, -3747.78, 7286.85, 6110.97, 6469.53, -2793.83, 5807.07, 0.000, 0.000, 0.000, 11:33:31.129, 1561451611129
12, 6961.88, 6889.30, -3748.90, 7285.48, 6110.30, 6467.68, -2795.29, 5808.28, 0.000, 0.000, 0.000, 11:33:31.132, 1561451611132
13, 6960.36, 6889.05, -3749.80, 7284.84, 6109.78, 6465.73, -2796.07, 5808.91, 0.000, 0.000, 0.000, 11:33:31.132, 1561451611132
14, 6962.77, 6891.96, -3749.71, 7287.00, 6110.90, 6467.05, -2796.29, 5808.08, 0.000, 0.000, 0.000, 11:33:31.132, 1561451611132
15, 6963.31, 6892.72, -3749.26, 7287.67, 6111.21, 6467.03, -2794.79, 5807.56, 0.000, 0.000, 0.000, 11:33:31.186, 1561451611186
16, 6961.12, 6890.62, -3747.60, 7286.85, 6111.17, 6465.20, -2795.06, 5807.23, 0.000, 0.000, 0.000, 11:33:31.186, 1561451611186
17, 6958.84, 6888.65, -3748.92, 7284.72, 6110.32, 6463.27, -2795.62, 5806.74, 0.010, 0.040, -1.032, 11:33:31.186, 1561451611186
18, 6957.63, 6887.87, -3749.37, 7283.85, 6109.65, 6461.60, -2796.18, 5807.50, 0.000, 0.000, 0.000, 11:33:31.186, 1561451611186
19, 6959.01, 6890.91, -3749.68, 7285.73, 6109.58, 6462.85, -2796.90, 5807.01, 0.000, 0.000, 0.000, 11:33:31.186, 1561451611186
20, 6960.02, 6891.69, -3747.40, 7286.76, 6110.50, 6463.25, -2794.17, 5806.89, 0.000, 0.000, 0.000, 11:33:31.186, 1561451611186
21, 6958.23, 6889.39, -3746.89, 7285.75, 6110.54, 6461.98, -2793.70, 5806.31, 0.000, 0.000, 0.000, 11:33:31.186, 1561451611186
22, 6957.02, 6888.63, -3750.15, 7284.41, 6110.18, 6460.79, -2794.10, 5806.94, 0.000, 0.000, 0.000, 11:33:31.186, 1561451611186
23, 6956.27, 6888.90, -3750.33, 7283.76, 6110.92, 6459.90, -2795.47, 5807.63, 0.000, 0.000, 0.000, 11:33:31.186, 1561451611186
24, 6957.99, 6890.84, -3749.48, 7284.86, 6110.01, 6460.08, -2798.48, 5806.49, 0.000, 0.000, 0.000, 11:33:31.186, 1561451611186
25, 6957.56, 6890.57, -3748.23, 7284.84, 6109.11, 6459.27, -2797.48, 5805.15, 0.000, 0.000, 0.000, 11:33:31.186, 1561451611186
26, 6956.29, 6889.54, -3747.58, 7284.54, 6109.58, 6459.10, -2797.03, 5805.62, 0.008, 0.042, -1.032, 11:33:31.187, 1561451611187
27, 6954.90, 6889.08, -3749.62, 7283.92, 6108.82, 6458.38, -2795.29, 5805.95, 0.000, 0.000, 0.000, 11:33:31.187, 1561451611187
28, 6953.63, 6888.61, -3749.62, 7283.14, 6108.35, 6457.84, -2796.63, 5806.51, 0.000, 0.000, 0.000, 11:33:31.187, 1561451611187
29, 6956.00, 6890.69, -3748.50, 7284.95, 6109.25, 6458.27, -2797.59, 5805.31, 0.000, 0.000, 0.000, 11:33:31.187, 1561451611187
30, 6956.73, 6890.91, -3747.85, 7285.69, 6109.07, 6458.54, -2797.01, 5805.62, 0.000, 0.000, 0.000, 11:33:31.246, 1561451611246
31, 6955.06, 6889.10, -3748.92, 7284.54, 6108.91, 6457.11, -2798.57, 5806.92, 0.000, 0.000, 0.000, 11:33:31.246, 1561451611246
32, 6953.25, 6887.67, -3749.10, 7283.45, 6107.75, 6455.88, -2799.24, 5805.49, 0.000, 0.000, 0.000, 11:33:31.246, 1561451611246
33, 6952.00, 6887.38, -3749.42, 7282.85, 6107.68, 6455.83, -2797.45, 5805.46, 0.000, 0.000, 0.000, 11:33:31.246, 1561451611246
34, 6954.57, 6890.39, -3749.44, 7284.72, 6110.21, 6457.04, -2796.31, 5805.71, 0.000, 0.000, 0.000, 11:33:31.246, 1561451611246
35, 6955.17, 6890.55, -3750.98, 7285.01, 6110.03, 6456.19, -2798.48, 5804.81, 0.000, 0.000, 0.000, 11:33:31.246, 1561451611246
36, 6953.47, 6888.83, -3751.23, 7283.41, 6108.78, 6454.38, -2797.03, 5805.11, 0.010, 0.042, -1.032, 11:33:31.246, 1561451611246
37, 6952.44, 6888.94, -3749.97, 7283.02, 6109.38, 6454.09, -2798.86, 5804.88, 0.000, 0.000, 0.000, 11:33:31.247, 1561451611247
38, 6951.71, 6887.91, -3751.09, 7282.85, 6108.58, 6453.15, -2799.09, 5804.48, 0.000, 0.000, 0.000, 11:33:31.247, 1561451611247
39, 6953.85, 6889.70, -3750.98, 7285.37, 6110.39, 6454.27, -2797.41, 5804.55, 0.000, 0.000, 0.000, 11:33:31.247, 1561451611247
40, 6955.44, 6890.95, -3748.61, 7286.36, 6112.38, 6456.12, -2797.54, 5804.88, 0.000, 0.000, 0.000, 11:33:31.247, 1561451611247
41, 6953.67, 6889.57, -3748.48, 7284.41, 6110.10, 6454.27, -2797.92, 5806.40, 0.000, 0.000, 0.000, 11:33:31.247, 1561451611247
42, 6951.62, 6888.85, -3748.90, 7282.94, 6109.98, 6452.81, -2798.15, 5805.49, 0.000, 0.000, 0.000, 11:33:31.247, 1561451611247
43, 6950.68, 6888.61, -3750.04, 7283.25, 6109.89, 6453.33, -2798.62, 5805.71, 0.000, 0.000, 0.000, 11:33:31.247, 1561451611247
44, 6953.31, 6889.88, -3751.36, 7285.42, 6109.40, 6454.80, -2798.97, 5804.50, 0.000, 0.000, 0.000, 11:33:31.247, 1561451611247
45, 6954.25, 6890.91, -3747.94, 7286.51, 6111.55, 6454.71, -2798.62, 5804.08, 0.000, 0.000, 0.000, 11:33:31.304, 1561451611304
46, 6953.14, 6890.26, -3746.29, 7285.64, 6111.26, 6454.36, -2797.88, 5805.55, 0.010, 0.042, -1.030, 11:33:31.304, 1561451611304
47, 6951.01, 6888.27, -3746.80, 7283.83, 6108.20, 6452.68, -2798.86, 5805.28, 0.000, 0.000, 0.000, 11:33:31.306, 1561451611306
48, 6949.67, 6887.22, -3748.52, 7282.31, 6108.20, 6451.81, -2799.69, 5804.66, 0.000, 0.000, 0.000, 11:33:31.308, 1561451611308
49, 6951.71, 6889.21, -3749.33, 7284.46, 6108.69, 6452.81, -2800.05, 5804.59, 0.000, 0.000, 0.000, 11:33:31.309, 1561451611309
50, 6953.27, 6890.62, -3749.42, 7285.13, 6109.71, 6453.08, -2799.98, 5803.61, 0.000, 0.000, 0.000, 11:33:31.309, 1561451611309
51, 6952.53, 6891.00, -3748.83, 7284.79, 6109.98, 6453.06, -2800.76, 5804.88, 0.000, 0.000, 0.000, 11:33:31.309, 1561451611309
52, 6951.50, 6890.08, -3746.06, 7284.63, 6110.59, 6452.57, -2800.34, 5805.40, 0.000, 0.000, 0.000, 11:33:31.309, 1561451611309
53, 6950.12, 6888.56, -3748.23, 7283.85, 6110.32, 6451.96, -2801.05, 5805.71, 0.000, 0.000, 0.000, 11:33:31.309, 1561451611309
54, 6952.17, 6890.39, -3749.66, 7285.64, 6110.85, 6452.12, -2799.51, 5804.17, 0.000, 0.000, 0.000, 11:33:31.309, 1561451611309
55, 6952.80, 6890.60, -3748.30, 7286.18, 6109.87, 6451.63, -2800.34, 5803.59, 0.000, 0.000, 0.000, 11:33:31.309, 1561451611309
56, 6951.26, 6889.32, -3748.99, 7284.90, 6109.80, 6450.96, -2800.54, 5803.65, 0.014, 0.040, -1.034, 11:33:31.309, 1561451611309
57, 6950.07, 6889.21, -3749.73, 7283.90, 6109.96, 6450.56, -2800.83, 5804.61, 0.000, 0.000, 0.000, 11:33:31.309, 1561451611309
58, 6949.72, 6888.58, -3748.68, 7283.43, 6109.85, 6450.20, -2800.67, 5806.40, 0.000, 0.000, 0.000, 11:33:31.309, 1561451611309
59, 6952.11, 6890.19, -3747.25, 7285.06, 6110.99, 6451.25, -2799.76, 5804.93, 0.000, 0.000, 0.000, 11:33:31.310, 1561451611310
60, 6953.25, 6891.44, -3747.07, 7285.95, 6110.14, 6452.19, -2800.20, 5804.01, 0.000, 0.000, 0.000, 11:33:31.310, 1561451611310
61, 6951.08, 6889.61, -3750.96, 7284.01, 6110.43, 6450.53, -2799.24, 5804.99, 0.000, 0.000, 0.000, 11:33:31.365, 1561451611365
62, 6949.78, 6889.01, -3749.33, 7283.52, 6110.16, 6450.00, -2802.17, 5805.15, 0.000, 0.000, 0.000, 11:33:31.365, 1561451611365
63, 6948.67, 6889.41, -3747.81, 7283.11, 6109.71, 6450.83, -2802.89, 5805.93, 0.000, 0.000, 0.000, 11:33:31.365, 1561451611365
64, 6950.74, 6890.53, -3748.79, 7284.61, 6110.50, 6451.36, -2802.17, 5804.23, 0.000, 0.000, 0.000, 11:33:31.366, 1561451611366
65, 6951.95, 6891.24, -3749.39, 7285.93, 6111.44, 6452.08, -2799.87, 5804.17, 0.000, 0.000, 0.000, 11:33:31.366, 1561451611366
66, 6951.30, 6889.99, -3749.71, 7285.06, 6110.32, 6451.03, -2800.74, 5804.61, 0.018, 0.040, -1.030, 11:33:31.366, 1561451611366
67, 6950.19, 6889.61, -3747.18, 7283.79, 6110.10, 6450.18, -2801.17, 5804.35, 0.000, 0.000, 0.000, 11:33:31.366, 1561451611366
68, 6949.36, 6889.72, -3747.65, 7283.38, 6108.91, 6449.57, -2802.17, 5804.44, 0.000, 0.000, 0.000, 11:33:31.366, 1561451611366
69, 6951.30, 6891.29, -3748.77, 7285.33, 6109.13, 6450.74, -2801.61, 5802.27, 0.000, 0.000, 0.000, 11:33:31.366, 1561451611366
70, 6952.04, 6892.23, -3748.88, 7286.09, 6109.51, 6451.14, -2800.99, 5801.71, 0.000, 0.000, 0.000, 11:33:31.366, 1561451611366
71, 6951.26, 6891.47, -3749.44, 7285.28, 6110.52, 6450.49, -2803.47, 5803.63, 0.000, 0.000, 0.000, 11:33:31.366, 1561451611366
72, 6949.83, 6890.46, -3748.23, 7283.72, 6110.39, 6449.69, -2803.04, 5804.32, 0.000, 0.000, 0.000, 11:33:31.366, 1561451611366
73, 6949.22, 6890.24, -3749.06, 7284.01, 6110.50, 6450.00, -2799.96, 5804.03, 0.000, 0.000, 0.000, 11:33:31.366, 1561451611366
74, 6950.65, 6891.40, -3749.86, 7285.53, 6110.18, 6449.86, -2801.68, 5802.47, 0.000, 0.000, 0.000, 11:33:31.366, 1561451611366
75, 6952.49, 6892.79, -3749.28, 7287.14, 6111.50, 6450.62, -2803.85, 5802.78, 0.000, 0.000, 0.000, 11:33:31.366, 1561451611366
76, 6951.26, 6890.95, -3747.65, 7285.51, 6111.08, 6450.15, -2804.38, 5802.80, 0.010, 0.040, -1.034, 11:33:31.426, 1561451611426
77, 6949.78, 6889.84, -3750.47, 7284.52, 6109.92, 6450.02, -2803.51, 5803.38, 0.000, 0.000, 0.000, 11:33:31.426, 1561451611426
78, 6948.73, 6889.72, -3749.86, 7283.61, 6109.20, 6448.68, -2802.31, 5803.70, 0.000, 0.000, 0.000, 11:33:31.426, 1561451611426
79, 6950.92, 6892.07, -3750.56, 7285.80, 6111.28, 6450.15, -2804.16, 5802.65, 0.000, 0.000, 0.000, 11:33:31.426, 1561451611426
80, 6951.84, 6893.23, -3748.77, 7287.38, 6111.32, 6450.60, -2802.89, 5802.85, 0.000, 0.000, 0.000, 11:33:31.426, 1561451611426
81, 6950.63, 6891.65, -3748.86, 7286.40, 6110.10, 6449.86, -2806.06, 5803.25, 0.000, 0.000, 0.000, 11:33:31.426, 1561451611426
82, 6949.02, 6890.08, -3748.36, 7284.52, 6109.47, 6449.06, -2804.67, 5802.42, 0.000, 0.000, 0.000, 11:33:31.426, 1561451611426
83, 6948.13, 6889.32, -3749.55, 7283.47, 6109.63, 6448.39, -2803.91, 5803.25, 0.000, 0.000, 0.000, 11:33:31.426, 1561451611426
84, 6950.68, 6892.16, -3747.74, 7286.02, 6109.71, 6449.89, -2805.50, 5803.29, 0.000, 0.000, 0.000, 11:33:31.426, 1561451611426
85, 6951.30, 6892.90, -3748.21, 7287.21, 6110.03, 6449.95, -2802.66, 5801.69, 0.000, 0.000, 0.000, 11:33:31.426, 1561451611426
86, 6949.89, 6891.80, -3749.46, 7285.95, 6110.39, 6449.24, -2802.64, 5801.28, 0.010, 0.040, -1.034, 11:33:31.426, 1561451611426
87, 6947.66, 6890.26, -3749.08, 7284.30, 6109.65, 6447.56, -2803.18, 5800.81, 0.000, 0.000, 0.000, 11:33:31.426, 1561451611426
88, 6946.77, 6889.17, -3749.30, 7283.70, 6107.97, 6446.89, -2803.80, 5801.62, 0.000, 0.000, 0.000, 11:33:31.426, 1561451611426
89, 6950.10, 6892.58, -3750.44, 7286.18, 6109.71, 6448.99, -2802.75, 5801.73, 0.000, 0.000, 0.000, 11:33:31.426, 1561451611426
90, 6951.39, 6893.99, -3749.77, 7287.29, 6110.54, 6449.71, -2803.45, 5801.66, 0.000, 0.000, 0.000, 11:33:31.426, 1561451611426
91, 6949.51, 6892.03, -3748.25, 7286.20, 6108.60, 6448.66, -2806.26, 5801.42, 0.000, 0.000, 0.000, 11:33:31.485, 1561451611485
92, 6948.67, 6891.82, -3748.39, 7285.71, 6109.13, 6448.46, -2804.61, 5802.80, 0.000, 0.000, 0.000, 11:33:31.485, 1561451611485
93, 6947.70, 6890.46, -3749.21, 7284.43, 6109.87, 6447.09, -2804.52, 5802.67, 0.000, 0.000, 0.000, 11:33:31.485, 1561451611485
94, 6949.78, 6892.41, -3748.12, 7286.09, 6109.40, 6448.77, -2803.94, 5801.60, 0.000, 0.000, 0.000, 11:33:31.485, 1561451611485
95, 6950.74, 6893.99, -3749.73, 7287.25, 6109.74, 6449.51, -2803.96, 5801.64, 0.000, 0.000, 0.000, 11:33:31.485, 1561451611485
96, 6950.14, 6892.94, -3749.64, 7286.49, 6109.80, 6448.52, -2804.83, 5801.75, 0.006, 0.048, -1.032, 11:33:31.485, 1561451611485
97, 6948.53, 6891.24, -3748.14, 7285.22, 6108.28, 6447.11, -2804.83, 5801.82, 0.000, 0.000, 0.000, 11:33:31.485, 1561451611485
98, 6947.39, 6890.42, -3750.09, 7284.23, 6108.06, 6446.94, -2802.93, 5801.93, 0.000, 0.000, 0.000, 11:33:31.485, 1561451611485
99, 6950.12, 6892.92, -3750.31, 7286.29, 6110.05, 6448.70, -2804.61, 5801.57, 0.000, 0.000, 0.000, 11:33:31.485, 1561451611485
100, 6951.71, 6894.57, -3749.08, 7288.41, 6111.77, 6450.11, -2805.99, 5801.62, 0.000, 0.000, 0.000, 11:33:31.485, 1561451611485
101, 6950.21, 6893.50, -3748.41, 7287.07, 6111.55, 6448.61, -2804.00, 5801.66, 0.000, 0.000, 0.000, 11:33:31.485, 1561451611485
102, 6948.02, 6891.29, -3749.01, 7284.79, 6110.18, 6447.11, -2806.42, 5800.81, 0.000, 0.000, 0.000, 11:33:31.486, 1561451611486
103, 6948.06, 6891.00, -3749.26, 7284.95, 6110.61, 6447.58, -2806.13, 5803.43, 0.000, 0.000, 0.000, 11:33:31.486, 1561451611486
104, 6950.36, 6893.08, -3749.42, 7286.94, 6110.92, 6449.13, -2807.65, 5803.41, 0.000, 0.000, 0.000, 11:33:31.486, 1561451611486
105, 6952.11, 6894.73, -3749.62, 7288.46, 6110.81, 6450.29, -2806.98, 5801.42, 0.000, 0.000, 0.000, 11:33:31.486, 1561451611486
106, 6950.05, 6893.05, -3746.69, 7287.27, 6109.69, 6448.63, -2806.17, 5802.09, 0.008, 0.046, -1.036, 11:33:31.546, 1561451611546
107, 6948.60, 6892.09, -3747.00, 7286.18, 6109.80, 6448.01, -2806.24, 5803.47, 0.000, 0.000, 0.000, 11:33:31.547, 1561451611547
108, 6947.03, 6890.66, -3750.02, 7284.75, 6108.78, 6446.91, -2803.98, 5802.18, 0.000, 0.000, 0.000, 11:33:31.547, 1561451611547
109, 6949.11, 6891.74, -3748.83, 7286.87, 6109.87, 6447.34, -2806.35, 5801.57, 0.000, 0.000, 0.000, 11:33:31.547, 1561451611547
110, 6951.06, 6893.46, -3748.66, 7288.19, 6109.69, 6448.05, -2807.07, 5801.31, 0.000, 0.000, 0.000, 11:33:31.547, 1561451611547
111, 6949.54, 6892.54, -3748.66, 7286.65, 6110.16, 6447.45, -2806.75, 5801.15, 0.000, 0.000, 0.000, 11:33:31.547, 1561451611547
112, 6948.26, 6891.80, -3747.63, 7286.09, 6109.83, 6447.07, -2806.26, 5801.93, 0.000, 0.000, 0.000, 11:33:31.547, 1561451611547
113, 6946.99, 6891.09, -3747.58, 7285.51, 6110.43, 6446.42, -2808.12, 5801.04, 0.000, 0.000, 0.000, 11:33:31.547, 1561451611547
114, 6950.34, 6894.28, -3747.58, 7287.74, 6111.32, 6448.01, -2808.56, 5801.31, 0.000, 0.000, 0.000, 11:33:31.547, 1561451611547
115, 6951.30, 6894.75, -3749.55, 7288.43, 6111.21, 6448.21, -2807.80, 5800.66, 0.000, 0.000, 0.000, 11:33:31.547, 1561451611547
116, 6949.69, 6893.14, -3749.01, 7287.41, 6111.06, 6447.65, -2807.31, 5801.91, 0.006, 0.044, -1.036, 11:33:31.547, 1561451611547
117, 6948.51, 6892.61, -3750.26, 7287.09, 6111.03, 6447.16, -2808.90, 5802.04, 0.000, 0.000, 0.000, 11:33:31.548, 1561451611548
118, 6947.55, 6891.42, -3751.14, 7285.77, 6109.51, 6446.11, -2808.85, 5801.60, 0.000, 0.000, 0.000, 11:33:31.548, 1561451611548
119, 6950.45, 6894.06, -3749.75, 7288.39, 6110.39, 6448.32, -2808.07, 5800.93, 0.000, 0.000, 0.000, 11:33:31.554, 1561451611554
120, 6951.62, 6895.02, -3747.16, 7289.86, 6111.44, 6448.66, -2809.19, 5800.39, 0.000, 0.000, 0.000, 11:33:31.555, 1561451611555
121, 6950.10, 6893.46, -3748.23, 7288.39, 6111.01, 6447.56, -2806.98, 5800.37, 0.000, 0.000, 0.000, 11:33:31.605, 1561451611605
122, 6948.22, 6892.38, -3749.37, 7286.85, 6110.56, 6446.94, -2808.32, 5801.31, 0.000, 0.000, 0.000, 11:33:31.606, 1561451611606
123, 6947.32, 6891.11, -3748.12, 7286.51, 6110.72, 6446.15, -2807.13, 5801.46, 0.000, 0.000, 0.000, 11:33:31.606, 1561451611606
124, 6949.76, 6893.59, -3748.03, 7288.64, 6111.12, 6447.76, -2807.45, 5800.79, 0.000, 0.000, 0.000, 11:33:31.606, 1561451611606
125, 6951.86, 6895.51, -3748.50, 7289.93, 6111.08, 6449.57, -2810.33, 5800.41, 0.000, 0.000, 0.000, 11:33:31.606, 1561451611606
126, 6950.63, 6894.15, -3749.28, 7288.59, 6111.53, 6448.43, -2811.20, 5801.04, 0.012, 0.044, -1.044, 11:33:31.606, 1561451611606
127, 6948.71, 6892.70, -3749.59, 7287.54, 6110.99, 6447.72, -2809.39, 5801.71, 0.000, 0.000, 0.000, 11:33:31.606, 1561451611606
128, 6947.06, 6891.71, -3749.46, 7287.07, 6110.25, 6446.44, -2809.12, 5801.13, 0.000, 0.000, 0.000, 11:33:31.606, 1561451611606
129, 6949.81, 6894.40, -3749.33, 7288.90, 6110.16, 6447.20, -2807.22, 5801.19, 0.000, 0.000, 0.000, 11:33:31.606, 1561451611606
130, 6951.86, 6895.65, -3749.10, 7289.78, 6111.55, 6448.43, -2808.14, 5799.56, 0.000, 0.000, 0.000, 11:33:31.606, 1561451611606
131, 6949.67, 6894.62, -3747.52, 7288.34, 6110.61, 6447.20, -2809.50, 5799.41, 0.000, 0.000, 0.000, 11:33:31.606, 1561451611606
132, 6948.73, 6893.48, -3750.40, 7287.36, 6111.15, 6446.85, -2809.10, 5799.96, 0.000, 0.000, 0.000, 11:33:31.606, 1561451611606
133, 6947.84, 6892.34, -3750.02, 7287.16, 6111.23, 6445.93, -2809.73, 5800.34, 0.000, 0.000, 0.000, 11:33:31.606, 1561451611606
134, 6950.03, 6894.89, -3747.96, 7289.40, 6111.28, 6446.94, -2807.40, 5799.92, 0.000, 0.000, 0.000, 11:33:31.606, 1561451611606
135, 6951.53, 6896.61, -3749.10, 7291.07, 6111.84, 6448.95, -2809.35, 5800.61, 0.000, 0.000, 0.000, 11:33:31.606, 1561451611606
136, 6950.14, 6895.45, -3749.48, 7290.83, 6112.00, 6447.76, -2809.66, 5800.70, 0.010, 0.044, -1.048, 11:33:31.666, 1561451611666
137, 6948.24, 6894.42, -3748.43, 7288.61, 6110.77, 6446.44, -2810.42, 5800.77, 0.000, 0.000, 0.000, 11:33:31.666, 1561451611666
138, 6946.83, 6892.45, -3747.99, 7286.71, 6108.71, 6445.59, -2810.84, 5801.24, 0.000, 0.000, 0.000, 11:33:31.666, 1561451611666
139, 6948.24, 6893.68, -3749.15, 7287.85, 6109.00, 6446.65, -2811.45, 5799.56, 0.000, 0.000, 0.000, 11:33:31.666, 1561451611666
140, 6949.98, 6894.75, -3748.66, 7289.24, 6110.94, 6447.11, -2810.75, 5798.65, 0.000, 0.000, 0.000, 11:33:31.666, 1561451611666
141, 6949.96, 6895.04, -3748.48, 7289.60, 6110.12, 6447.99, -2808.32, 5799.92, 0.000, 0.000, 0.000, 11:33:31.666, 1561451611666
142, 6948.87, 6894.57, -3747.60, 7289.35, 6111.57, 6447.23, -2808.99, 5800.52, 0.000, 0.000, 0.000, 11:33:31.666, 1561451611666
143, 6947.06, 6892.90, -3748.66, 7287.85, 6111.15, 6446.06, -2810.98, 5800.55, 0.000, 0.000, 0.000, 11:33:31.666, 1561451611666
144, 6949.58, 6894.98, -3748.34, 7289.91, 6111.93, 6447.65, -2810.60, 5800.41, 0.000, 0.000, 0.000, 11:33:31.666, 1561451611666
145, 6951.62, 6896.43, -3747.56, 7291.65, 6112.38, 6448.68, -2810.93, 5799.18, 0.012, 0.042, -1.036, 11:33:31.666, 1561451611666
146, 6950.03, 6894.80, -3745.08, 7289.89, 6110.56, 6447.20, -2812.12, 5799.25, 0.000, 0.000, 0.000, 11:33:31.666, 1561451611666
147, 6948.87, 6895.04, -3747.47, 7289.19, 6110.85, 6446.06, -2810.08, 5799.56, 0.000, 0.000, 0.000, 11:33:31.666, 1561451611666
148, 6948.13, 6894.13, -3750.42, 7288.93, 6111.44, 6445.55, -2809.79, 5800.14, 0.000, 0.000, 0.000, 11:33:31.666, 1561451611666
149, 6950.16, 6896.47, -3748.81, 7291.03, 6111.95, 6447.94, -2809.97, 5799.74, 0.000, 0.000, 0.000, 11:33:31.666, 1561451611666
150, 6952.17, 6897.88, -3747.92, 7292.59, 6112.38, 6449.44, -2811.04, 5799.52, 0.000, 0.000, 0.000, 11:33:31.666, 1561451611666
151, 6950.70, 6896.03, -3746.47, 7290.67, 6112.78, 6447.74, -2813.19, 5799.67, 0.000, 0.000, 0.000, 11:33:31.726, 1561451611726
152, 6949.07, 6894.91, -3747.58, 7289.95, 6109.92, 6446.87, -2812.68, 5800.75, 0.000, 0.000, 0.000, 11:33:31.726, 1561451611726
153, 6946.70, 6892.92, -3748.07, 7288.93, 6108.91, 6445.51, -2811.85, 5800.32, 0.000, 0.000, 0.000, 11:33:31.726, 1561451611726
154, 6948.91, 6895.60, -3749.35, 7290.76, 6110.61, 6446.94, -2812.39, 5799.85, 0.000, 0.000, 0.000, 11:33:31.727, 1561451611727
155, 6950.65, 6896.70, -3748.59, 7291.83, 6111.84, 6448.21, -2812.41, 5797.68, 0.008, 0.040, -1.032, 11:33:31.727, 1561451611727
156, 6949.22, 6895.29, -3747.69, 7290.40, 6110.07, 6446.38, -2811.42, 5798.02, 0.000, 0.000, 0.000, 11:33:31.727, 1561451611727
157, 6947.91, 6894.31, -3748.16, 7289.89, 6108.82, 6444.97, -2812.50, 5799.23, 0.000, 0.000, 0.000, 11:33:31.727, 1561451611727
158, 6946.99, 6893.66, -3749.37, 7288.75, 6109.02, 6445.15, -2811.49, 5799.36, 0.000, 0.000, 0.000, 11:33:31.727, 1561451611727
159, 6949.69, 6896.32, -3750.67, 7291.30, 6111.50, 6446.94, -2812.65, 5799.14, 0.000, 0.000, 0.000, 11:33:31.727, 1561451611727
160, 6952.55, 6898.98, -3747.56, 7294.63, 6113.38, 6449.75, -2813.12, 5799.41, 0.000, 0.000, 0.000, 11:33:31.727, 1561451611727
161, 6950.12, 6896.74, -3748.41, 7292.39, 6110.54, 6447.54, -2812.27, 5798.00, 0.000, 0.000, 0.000, 11:33:31.727, 1561451611727
162, 6947.82, 6894.91, -3750.49, 7290.22, 6109.80, 6446.35, -2812.74, 5797.82, 0.000, 0.000, 0.000, 11:33:31.727, 1561451611727
163, 6946.16, 6893.34, -3748.01, 7289.19, 6109.98, 6444.66, -2814.11, 5798.80, 0.000, 0.000, 0.000, 11:33:31.727, 1561451611727
164, 6948.33, 6895.83, -3747.45, 7292.10, 6111.03, 6446.71, -2813.84, 5798.44, 0.000, 0.000, 0.000, 11:33:31.727, 1561451611727
165, 6950.57, 6897.61, -3747.25, 7293.73, 6111.66, 6447.76, -2814.11, 5798.76, 0.010, 0.040, -1.034, 11:33:31.727, 1561451611727
166, 6949.56, 6896.76, -3748.70, 7292.30, 6111.88, 6447.00, -2813.28, 5798.56, 0.000, 0.000, 0.000, 11:33:31.787, 1561451611787
167, 6948.44, 6895.62, -3748.14, 7291.56, 6111.53, 6447.00, -2814.44, 5799.56, 0.000, 0.000, 0.000, 11:33:31.787, 1561451611787
168, 6946.85, 6894.82, -3748.05, 7289.66, 6109.98, 6445.44, -2814.78, 5799.85, 0.000, 0.000, 0.000, 11:33:31.787, 1561451611787
169, 6948.91, 6896.65, -3749.10, 7291.38, 6110.54, 6446.89, -2815.72, 5798.60, 0.000, 0.000, 0.000, 11:33:31.788, 1561451611788
170, 6950.52, 6897.93, -3750.53, 7293.69, 6111.79, 6447.81, -2815.47, 5797.73, 0.000, 0.000, 0.000, 11:33:31.788, 1561451611788
171, 6949.56, 6896.32, -3748.32, 7292.84, 6112.67, 6447.05, -2813.79, 5797.77, 0.000, 0.000, 0.000, 11:33:31.788, 1561451611788
172, 6949.36, 6896.43, -3748.48, 7292.17, 6111.26, 6446.98, -2813.41, 5798.80, 0.000, 0.000, 0.000, 11:33:31.788, 1561451611788
173, 6946.65, 6894.57, -3747.83, 7290.33, 6109.02, 6445.15, -2815.65, 5799.03, 0.000, 0.000, 0.000, 11:33:31.788, 1561451611788
174, 6948.08, 6895.38, -3747.96, 7292.14, 6110.39, 6446.33, -2813.10, 5798.09, 0.000, 0.000, 0.000, 11:33:31.788, 1561451611788
175, 6950.50, 6897.59, -3748.19, 7294.65, 6111.50, 6447.49, -2812.97, 5797.95, 0.012, 0.042, -1.030, 11:33:31.788, 1561451611788
176, 6949.83, 6897.39, -3747.81, 7294.51, 6111.35, 6446.96, -2815.45, 5798.74, 0.000, 0.000, 0.000, 11:33:31.788, 1561451611788
177, 6948.55, 6896.34, -3747.99, 7292.75, 6110.45, 6446.31, -2815.36, 5799.20, 0.000, 0.000, 0.000, 11:33:31.788, 1561451611788
178, 6947.17, 6895.04, -3748.54, 7290.94, 6108.93, 6445.71, -2816.10, 5798.87, 0.000, 0.000, 0.000, 11:33:31.788, 1561451611788
179, 6949.74, 6897.39, -3748.81, 7293.69, 6111.06, 6447.32, -2816.36, 5799.16, 0.000, 0.000, 0.000, 11:33:31.788, 1561451611788
180, 6950.72, 6898.46, -3745.77, 7294.89, 6111.75, 6447.61, -2815.63, 5797.89, 0.000, 0.000, 0.000, 11:33:31.788, 1561451611788
0, 6948.64, 6901.97, -3748.23, 7308.93, 6120.11, 6450.06, -2839.72, 5798.56, 0.010, 0.040, -1.040, 11:33:32.523, 1561451612523
1, 6947.39, 6901.28, -3748.81, 7308.44, 6120.31, 6449.77, -2840.15, 5798.87, 0.000, 0.000, 0.000, 11:33:32.523, 1561451612523
2, 6946.68, 6900.61, -3748.12, 7307.17, 6118.77, 6448.37, -2837.17, 5799.29, 0.000, 0.000, 0.000, 11:33:32.523, 1561451612523
3, 6945.09, 6898.11, -3745.30, 7305.18, 6118.32, 6447.09, -2837.58, 5799.74, 0.000, 0.000, 0.000, 11:33:32.523, 1561451612523
4, 6947.06, 6900.36, -3746.35, 7307.14, 6119.71, 6449.39, -2838.83, 5799.67, 0.000, 0.000, 0.000, 11:33:32.523, 1561451612523
5, 6948.69, 6901.95, -3747.85, 7309.04, 6120.09, 6450.67, -2839.52, 5797.75, 0.000, 0.000, 0.000, 11:33:32.523, 1561451612523
6, 6946.63, 6900.10, -3748.81, 7307.54, 6119.42, 6450.18, -2839.07, 5797.66, 0.000, 0.000, 0.000, 11:33:32.523, 1561451612523
7, 6945.98, 6899.29, -3749.04, 7306.92, 6120.20, 6449.57, -2836.82, 5798.89, 0.012, 0.042, -1.034, 11:33:32.523, 1561451612523
8, 6945.45, 6898.82, -3749.37, 7305.91, 6118.66, 6447.99, -2836.79, 5799.81, 0.000, 0.000, 0.000, 11:33:32.523, 1561451612523
9, 6947.26, 6900.79, -3747.25, 7307.63, 6118.88, 6448.90, -2839.34, 5799.12, 0.000, 0.000, 0.000, 11:33:32.523, 1561451612523
10, 6948.71, 6902.06, -3746.51, 7309.31, 6119.59, 6450.00, -2840.93, 5797.95, 0.000, 0.000, 0.000, 11:33:32.523, 1561451612523
11, 6947.50, 6900.70, -3748.66, 7308.30, 6119.55, 6450.02, -2838.60, 5798.47, 0.000, 0.000, 0.000, 11:33:32.523, 1561451612523
12, 6945.78, 6898.96, -3748.81, 7306.70, 6119.26, 6448.70, -2838.25, 5798.09, 0.000, 0.000, 0.000, 11:33:32.523, 1561451612523
13, 6945.74, 6898.73, -3748.03, 7306.18, 6118.79, 6448.39, -2839.14, 5800.10, 0.000, 0.000, 0.000, 11:33:32.523, 1561451612523
14, 6947.50, 6901.21, -3748.45, 7307.66, 6119.93, 6449.71, -2838.00, 5800.14, 0.000, 0.000, 0.000, 11:33:32.523, 1561451612523
15, 6949.16, 6902.55, -3749.75, 7309.71, 6121.34, 6451.41, -2839.01, 5799.63, 0.000, 0.000, 0.000, 11:33:32.583, 1561451612583
16, 6947.37, 6900.88, -3748.66, 7308.28, 6120.27, 6450.04, -2839.54, 5800.41, 0.012, 0.046, -1.040, 11:33:32.583, 1561451612583
17, 6945.89, 6899.49, -3749.82, 7306.70, 6119.35, 6449.53, -2839.90, 5799.88, 0.000, 0.000, 0.000, 11:33:32.583, 1561451612583
18, 6945.40, 6898.89, -3749.93, 7306.96, 6119.15, 6448.46, -2839.32, 5800.30, 0.000, 0.000, 0.000, 11:33:32.584, 1561451612584
19, 6946.90, 6900.56, -3746.22, 7308.75, 6120.04, 6449.28, -2839.90, 5800.17, 0.000, 0.000, 0.000, 11:33:32.584, 1561451612584
20, 6949.07, 6902.33, -3747.49, 7309.67, 6121.94, 6450.44, -2839.83, 5798.82, 0.000, 0.000, 0.000, 11:33:32.584, 1561451612584
21, 6948.22, 6901.15, -3746.20, 7308.55, 6121.67, 6449.71, -2839.68, 5799.58, 0.000, 0.000, 0.000, 11:33:32.584, 1561451612584
22, 6946.81, 6899.45, -3746.31, 7307.34, 6120.00, 6449.80, -2838.63, 5799.99, 0.000, 0.000, 0.000, 11:33:32.584, 1561451612584
23, 6945.56, 6898.73, -3748.75, 7306.07, 6118.03, 6448.61, -2839.63, 5800.86, 0.000, 0.000, 0.000, 11:33:32.584, 1561451612584
24, 6946.94, 6900.45, -3748.97, 7307.28, 6119.26, 6449.22, -2840.33, 5800.41, 0.000, 0.000, 0.000, 11:33:32.584, 1561451612584
25, 6949.60, 6902.69, -3748.72, 7309.47, 6122.12, 6451.67, -2841.60, 5800.08, 0.000, 0.000, 0.000, 11:33:32.584, 1561451612584
26, 6947.88, 6901.30, -3749.33, 7308.48, 6121.23, 6450.15, -2839.48, 5800.14, 0.014, 0.048, -1.038, 11:33:32.584, 1561451612584
27, 6946.41, 6899.78, -3749.84, 7307.30, 6120.53, 6448.59, -2839.61, 5799.67, 0.000, 0.000, 0.000, 11:33:32.584, 1561451612584
28, 6945.00, 6898.28, -3748.41, 7306.11, 6120.04, 6447.56, -2838.92, 5800.72, 0.000, 0.000, 0.000, 11:33:32.584, 1561451612584
29, 6945.60, 6899.02, -3749.21, 7306.76, 6119.37, 6447.85, -2840.55, 5799.70, 0.000, 0.000, 0.000, 11:33:32.584, 1561451612584
30, 6948.35, 6901.53, -3751.29, 7309.65, 6121.00, 6449.95, -2843.30, 5799.43, 0.000, 0.000, 0.000, 11:33:32.644, 1561451612644
31, 6948.62, 6901.70, -3750.42, 7309.31, 6120.51, 6450.58, -2840.84, 5801.37, 0.000, 0.000, 0.000, 11:33:32.644, 1561451612644
32, 6947.01, 6901.26, -3748.21, 7308.77, 6120.51, 6450.11, -2840.97, 5801.86, 0.000, 0.000, 0.000, 11:33:32.644, 1561451612644
33, 6945.20, 6899.74, -3748.88, 7306.92, 6119.64, 6448.21, -2841.26, 5801.44, 0.000, 0.000, 0.000, 11:33:32.644, 1561451612644
34, 6946.88, 6900.25, -3749.62, 7307.03, 6120.60, 6449.19, -2841.62, 5800.84, 0.000, 0.000, 0.000, 11:33:32.644, 1561451612644
35, 6949.51, 6902.73, -3750.33, 7309.91, 6121.61, 6450.71, -2842.52, 5800.08, 0.000, 0.000, 0.000, 11:33:32.644, 1561451612644
36, 6947.75, 6901.19, -3748.77, 7308.69, 6120.80, 6449.89, -2840.50, 5800.34, 0.012, 0.046, -1.032, 11:33:32.644, 1561451612644
37, 6946.77, 6900.01, -3749.53, 7307.54, 6121.49, 6449.75, -2840.68, 5800.48, 0.000, 0.000, 0.000, 11:33:32.644, 1561451612644
38, 6945.83, 6898.44, -3748.99, 7306.63, 6121.49, 6448.37, -2841.71, 5800.86, 0.000, 0.000, 0.000, 11:33:32.644, 1561451612644
39, 6946.52, 6899.85, -3748.01, 7307.59, 6120.87, 6448.79, -2843.12, 5800.17, 0.000, 0.000, 0.000, 11:33:32.644, 1561451612644
40, 6948.24, 6902.02, -3748.99, 7309.22, 6122.39, 6450.06, -2839.32, 5799.45, 0.000, 0.000, 0.000, 11:33:32.644, 1561451612644
41, 6947.68, 6901.48, -3749.13, 7308.77, 6122.39, 6449.69, -2839.16, 5800.81, 0.000, 0.000, 0.000, 11:33:32.645, 1561451612645
42, 6946.77, 6901.15, -3749.21, 7307.52, 6121.00, 6449.48, -2841.71, 5801.89, 0.000, 0.000, 0.000, 11:33:32.645, 1561451612645
43, 6945.67, 6899.00, -3748.97, 7306.09, 6119.77, 6448.43, -2842.78, 5801.37, 0.000, 0.000, 0.000, 11:33:32.645, 1561451612645
44, 6946.81, 6900.27, -3747.67, 7307.32, 6120.20, 6449.01, -2844.68, 5799.90, 0.000, 0.000, 0.000, 11:33:32.645, 1561451612645
45, 6949.76, 6903.36, -3748.81, 7310.16, 6122.05, 6451.58, -2842.94, 5800.64, 0.000, 0.000, 0.000, 11:33:32.645, 1561451612645
46, 6948.46, 6901.82, -3746.17, 7308.82, 6122.59, 6451.03, -2841.31, 5801.13, 0.010, 0.046, -1.038, 11:33:32.705, 1561451612705
47, 6946.61, 6900.01, -3748.41, 7306.92, 6121.49, 6449.28, -2842.18, 5800.37, 0.000, 0.000, 0.000, 11:33:32.705, 1561451612705
48, 6945.22, 6898.80, -3751.09, 7305.80, 6121.85, 6447.65, -2842.38, 5802.13, 0.000, 0.000, 0.000, 11:33:32.705, 1561451612705
49, 6946.90, 6900.68, -3750.40, 7307.41, 6121.70, 6448.23, -2842.67, 5801.31, 0.000, 0.000, 0.000, 11:33:32.705, 1561451612705
50, 6948.62, 6902.38, -3747.52, 7309.44, 6121.54, 6449.98, -2844.80, 5799.25, 0.000, 0.000, 0.000, 11:33:32.705, 1561451612705
51, 6947.86, 6901.23, -3747.05, 7308.84, 6121.67, 6450.00, -2841.98, 5799.76, 0.000, 0.000, 0.000, 11:33:32.706, 1561451612706
52, 6946.50, 6900.32, -3748.66, 7307.54, 6120.67, 6448.95, -2840.95, 5800.23, 0.000, 0.000, 0.000, 11:33:32.706, 1561451612706
53, 6944.91, 6898.37, -3748.70, 7305.71, 6120.22, 6448.39, -2840.93, 5801.28, 0.000, 0.000, 0.000, 11:33:32.706, 1561451612706
54, 6945.87, 6899.38, -3749.48, 7306.63, 6120.44, 6448.57, -2842.05, 5800.77, 0.000, 0.000, 0.000, 11:33:32.706, 1561451612706
55, 6948.42, 6902.38, -3748.90, 7309.22, 6122.37, 6450.36, -2841.71, 5801.26, 0.000, 0.000, 0.000, 11:33:32.706, 1561451612706
56, 6947.41, 6901.06, -3748.57, 7308.75, 6122.90, 6450.47, -2842.72, 5801.46, 0.008, 0.040, -1.034, 11:33:32.706, 1561451612706
57, 6946.54, 6900.01, -3749.64, 7307.81, 6122.01, 6449.89, -2843.79, 5801.51, 0.000, 0.000, 0.000, 11:33:32.706, 1561451612706
58, 6944.87, 6898.17, -3751.23, 7305.98, 6120.35, 6448.93, -2842.85, 5802.47, 0.000, 0.000, 0.000, 11:33:32.706, 1561451612706
59, 6945.92, 6899.94, -3748.16, 7306.63, 6121.32, 6448.95, -2841.78, 5802.56, 0.000, 0.000, 0.000, 11:33:32.706, 1561451612706
60, 6948.78, 6902.46, -3747.49, 7309.38, 6124.02, 6450.58, -2841.87, 5801.15, 0.000, 0.000, 0.000, 11:33:32.706, 1561451612706
61, 6948.04, 6901.30, -3746.47, 7308.98, 6123.06, 6450.29, -2841.80, 5800.86, 0.000, 0.000, 0.000, 11:33:32.764, 1561451612764
62, 6947.23, 6899.92, -3746.87, 7307.70, 6122.17, 6450.11, -2841.58, 5800.84, 0.000, 0.000, 0.000, 11:33:32.765, 1561451612765
63, 6946.18, 6899.29, -3746.17, 7305.98, 6121.56, 6449.19, -2843.01, 5802.29, 0.000, 0.000, 0.000, 11:33:32.765, 1561451612765
64, 6946.68, 6900.52, -3749.08, 7307.32, 6120.91, 6449.91, -2842.07, 5802.09, 0.000, 0.000, 0.000, 11:33:32.765, 1561451612765
65, 6949.74, 6902.58, -3748.75, 7310.09, 6122.79, 6451.50, -2842.14, 5800.43, 0.000, 0.000, 0.000, 11:33:32.766, 1561451612766
66, 6949.07, 6901.68, -3749.35, 7309.33, 6122.08, 6450.98, -2845.76, 5801.28, 0.012, 0.044, -1.034, 11:33:32.766, 1561451612766
67, 6947.39, 6899.96, -3750.53, 7307.84, 6121.38, 6450.00, -2844.55, 5802.09, 0.000, 0.000, 0.000, 11:33:32.766, 1561451612766
68, 6945.63, 6898.60, -3748.36, 7306.72, 6121.16, 6448.97, -2844.06, 5802.31, 0.000, 0.000, 0.000, 11:33:32.766, 1561451612766
69, 6946.12, 6900.12, -3747.85, 7307.39, 6121.43, 6449.89, -2843.28, 5801.57, 0.000, 0.000, 0.000, 11:33:32.766, 1561451612766
70, 6948.55, 6902.24, -3749.10, 7309.60, 6122.75, 6450.98, -2844.77, 5800.14, 0.000, 0.000, 0.000, 11:33:32.766, 1561451612766
71, 6948.22, 6901.21, -3746.87, 7308.26, 6122.81, 6449.89, -2844.37, 5800.39, 0.000, 0.000, 0.000, 11:33:32.766, 1561451612766
72, 6947.39, 6900.50, -3748.45, 7307.19, 6122.39, 6449.77, -2844.51, 5801.93, 0.000, 0.000, 0.000, 11:33:32.766, 1561451612766
73, 6945.89, 6899.67, -3748.21, 7306.65, 6121.52, 6449.91, -2844.53, 5802.36, 0.000, 0.000, 0.000, 11:33:32.766, 1561451612766
74, 6946.45, 6900.34, -3744.74, 7307.79, 6120.73, 6450.51, -2844.80, 5800.93, 0.000, 0.000, 0.000, 11:33:32.766, 1561451612766
75, 6950.10, 6903.34, -3744.90, 7310.27, 6123.24, 6452.19, -2844.13, 5800.61, 0.000, 0.000, 0.000, 11:33:32.766, 1561451612766
76, 6949.22, 6902.08, -3746.53, 7309.56, 6123.89, 6452.14, -2843.25, 5800.99, 0.014, 0.044, -1.030, 11:33:32.827, 1561451612827
77, 6947.44, 6900.65, -3748.48, 7307.99, 6122.97, 6450.47, -2846.99, 5801.35, 0.000, 0.000, 0.000, 11:33:32.827, 1561451612827
78, 6945.22, 6899.22, -3750.24, 7306.20, 6121.83, 6448.79, -2844.93, 5800.99, 0.000, 0.000, 0.000, 11:33:32.827, 1561451612827
79, 6946.83, 6900.16, -3748.14, 7307.54, 6122.84, 6449.28, -2844.13, 5801.08, 0.000, 0.000, 0.000, 11:33:32.827, 1561451612827
80, 6949.20, 6902.24, -3748.36, 7310.03, 6123.77, 6450.36, -2844.82, 5801.10, 0.000, 0.000, 0.000, 11:33:32.827, 1561451612827
81, 6948.02, 6901.79, -3750.89, 7309.09, 6123.01, 6450.22, -2844.21, 5801.86, 0.000, 0.000, 0.000, 11:33:32.827, 1561451612827
82, 6946.99, 6901.06, -3751.99, 7308.24, 6122.54, 6450.33, -2842.87, 5802.58, 0.000, 0.000, 0.000, 11:33:32.827, 1561451612827
83, 6945.20, 6898.93, -3748.88, 7306.58, 6121.16, 6448.50, -2846.74, 5802.85, 0.000, 0.000, 0.000, 11:33:32.827, 1561451612827
84, 6947.37, 6900.50, -3747.99, 7308.04, 6121.76, 6449.51, -2845.80, 5801.98, 0.000, 0.000, 0.000, 11:33:32.827, 1561451612827
85, 6949.11, 6901.55, -3747.96, 7309.02, 6122.10, 6450.06, -2845.78, 5800.32, 0.000, 0.000, 0.000, 11:33:32.827, 1561451612827
86, 6947.95, 6901.19, -3748.92, 7308.55, 6123.57, 6449.82, -2847.37, 5801.37, 0.016, 0.040, -1.030, 11:33:32.827, 1561451612827
87, 6946.68, 6901.12, -3747.67, 7307.66, 6122.70, 6450.38, -2848.80, 5802.49, 0.000, 0.000, 0.000, 11:33:32.827, 1561451612827
88, 6945.89, 6899.96, -3748.43, 7306.85, 6122.77, 6450.13, -2847.32, 5802.71, 0.000, 0.000, 0.000, 11:33:32.827, 1561451612827
89, 6947.15, 6900.23, -3751.00, 7307.77, 6122.79, 6450.56, -2846.79, 5801.64, 0.000, 0.000, 0.000, 11:33:32.827, 1561451612827
90, 6949.47, 6901.97, -3750.49, 7309.22, 6123.48, 6450.44, -2845.33, 5801.37, 0.000, 0.000, 0.000, 11:33:32.828, 1561451612828
91, 6948.51, 6902.04, -3748.41, 7309.09, 6122.57, 6449.93, -2844.75, 5800.88, 0.000, 0.000, 0.000, 11:33:32.885, 1561451612885
92, 6946.65, 6899.80, -3748.36, 7307.48, 6122.54, 6449.57, -2845.29, 5801.28, 0.000, 0.000, 0.000, 11:33:32.885, 1561451612885
93, 6944.49, 6898.44, -3750.09, 7306.20, 6122.12, 6448.79, -2846.70, 5802.31, 0.000, 0.000, 0.000, 11:33:32.885, 1561451612885
94, 6946.16, 6900.34, -3748.48, 7307.61, 6123.22, 6450.18, -2847.08, 5802.85, 0.000, 0.000, 0.000, 11:33:32.885, 1561451612885
95, 6948.93, 6901.97, -3748.12, 7309.44, 6124.29, 6450.69, -2845.58, 5801.66, 0.000, 0.000, 0.000, 11:33:32.885, 1561451612885
96, 6947.99, 6900.25, -3749.08, 7309.29, 6123.39, 6450.22, -2847.03, 5802.74, 0.008, 0.042, -1.028, 11:33:32.885, 1561451612885
97, 6946.77, 6899.33, -3748.30, 7307.54, 6123.08, 6449.98, -2846.99, 5801.86, 0.000, 0.000, 0.000, 11:33:32.885, 1561451612885
98, 6944.42, 6898.31, -3745.88, 7305.85, 6121.16, 6448.63, -2845.20, 5801.86, 0.000, 0.000, 0.000, 11:33:32.885, 1561451612885
99, 6946.05, 6899.09, -3747.43, 7307.03, 6122.21, 6449.69, -2844.73, 5803.32, 0.000, 0.000, 0.000, 11:33:32.885, 1561451612885
100, 6948.80, 6901.91, -3749.44, 7309.60, 6122.77, 6451.09, -2848.10, 5801.82, 0.000, 0.000, 0.000, 11:33:32.885, 1561451612885
101, 6948.71, 6901.01, -3747.20, 7309.36, 6123.86, 6452.46, -2846.20, 5802.80, 0.000, 0.000, 0.000, 11:33:32.886, 1561451612886
102, 6947.19, 6899.45, -3748.32, 7307.72, 6123.39, 6451.23, -2848.69, 5803.70, 0.000, 0.000, 0.000, 11:33:32.886, 1561451612886
103, 6945.42, 6898.26, -3748.19, 7306.52, 6122.25, 6449.28, -2847.61, 5803.85, 0.000, 0.000, 0.000, 11:33:32.886, 1561451612886
104, 6946.23, 6899.65, -3747.25, 7307.28, 6122.08, 6449.33, -2847.81, 5803.12, 0.000, 0.000, 0.000, 11:33:32.886, 1561451612886
105, 6949.22, 6901.82, -3749.28, 7309.80, 6123.73, 6450.98, -2847.50, 5802.60, 0.000, 0.000, 0.000, 11:33:32.886, 1561451612886
106, 6948.11, 6900.85, -3750.09, 7309.49, 6123.73, 6450.36, -2846.92, 5803.43, 0.010, 0.044, -1.030, 11:33:32.944, 1561451612944
107, 6946.34, 6899.11, -3748.39, 7307.92, 6123.01, 6448.99, -2846.87, 5803.27, 0.000, 0.000, 0.000, 11:33:32.944, 1561451612944
108, 6945.20, 6898.11, -3748.61, 7306.18, 6122.46, 6449.37, -2847.37, 5804.12, 0.000, 0.000, 0.000, 11:33:32.944, 1561451612944
109, 6946.81, 6898.89, -3747.81, 7306.99, 6122.70, 6449.84, -2847.86, 5802.47, 0.000, 0.000, 0.000, 11:33:32.945, 1561451612945
110, 6949.54, 6901.66, -3748.39, 7309.29, 6123.39, 6451.14, -2848.53, 5800.25, 0.000, 0.000, 0.000, 11:33:32.945, 1561451612945
111, 6948.93, 6901.17, -3747.74, 7308.77, 6123.73, 6450.53, -2847.99, 5801.75, 0.000, 0.000, 0.000, 11:33:32.945, 1561451612945
112, 6947.32, 6899.96, -3747.74, 7307.66, 6123.98, 6449.44, -2845.44, 5803.32, 0.000, 0.000, 0.000, 11:33:32.945, 1561451612945
113, 6945.96, 6899.16, -3747.96, 7306.94, 6122.86, 6449.57, -2848.06, 5803.67, 0.000, 0.000, 0.000, 11:33:32.945, 1561451612945
114, 6945.56, 6899.04, -3750.67, 7306.90, 6122.28, 6449.10, -2849.02, 5801.24, 0.000, 0.000, 0.000, 11:33:32.945, 1561451612945
115, 6948.31, 6901.26, -3748.72, 7309.11, 6123.28, 6450.71, -2845.69, 5800.30, 0.000, 0.000, 0.000, 11:33:32.945, 1561451612945
116, 6948.22, 6900.94, -3746.49, 7308.84, 6122.75, 6451.67, -2846.20, 5802.02, 0.006, 0.042, -1.030, 11:33:32.945, 1561451612945
117, 6947.84, 6900.34, -3746.64, 7307.88, 6122.50, 6450.80, -2847.55, 5803.99, 0.000, 0.000, 0.000, 11:33:32.945, 1561451612945
118, 6945.87, 6898.89, -3749.30, 7306.14, 6121.87, 6449.35, -2846.03, 5802.85, 0.000, 0.000, 0.000, 11:33:32.945, 1561451612945
119, 6946.18, 6899.63, -3749.15, 7306.81, 6122.19, 6450.24, -2847.77, 5802.54, 0.000, 0.000, 0.000, 11:33:32.945, 1561451612945
120, 6950.03, 6902.64, -3747.90, 7309.65, 6123.64, 6452.48, -2850.58, 5802.24, 0.000, 0.000, 0.000, 11:33:32.945, 1561451612945
121, 6949.13, 6902.02, -3748.01, 7309.65, 6124.00, 6451.81, -2849.31, 5801.66, 0.000, 0.000, 0.000, 11:33:33.005, 1561451613005
122, 6947.08, 6899.94, -3749.59, 7307.61, 6122.90, 6450.15, -2849.69, 5802.31, 0.000, 0.000, 0.000, 11:33:33.005, 1561451613005
123, 6946.09, 6898.84, -3749.37, 7306.65, 6121.54, 6449.82, -2848.82, 5803.16, 0.000, 0.000, 0.000, 11:33:33.005, 1561451613005
124, 6947.99, 6900.54, -3747.40, 7307.92, 6121.52, 6450.44, -2847.59, 5802.94, 0.000, 0.000, 0.000, 11:33:33.005, 1561451613005
125, 6949.69, 6902.42, -3747.09, 7309.53, 6123.22, 6451.41, -2847.46, 5801.84, 0.000, 0.000, 0.000, 11:33:33.005, 1561451613005
126, 6948.78, 6902.11, -3747.65, 7309.15, 6123.80, 6450.96, -2846.41, 5803.36, 0.012, 0.042, -1.044, 11:33:33.006, 1561451613006
127, 6947.17, 6900.07, -3747.20, 7307.79, 6123.33, 6449.98, -2847.32, 5803.72, 0.000, 0.000, 0.000, 11:33:33.006, 1561451613006
128, 6945.16, 6897.79, -3747.63, 7305.65, 6121.11, 6448.34, -2848.15, 5803.59, 0.000, 0.000, 0.000, 11:33:33.006, 1561451613006
129, 6946.99, 6899.07, -3750.04, 7307.10, 6121.72, 6449.48, -2849.45, 5803.09, 0.000, 0.000, 0.000, 11:33:33.006, 1561451613006
130, 6949.22, 6901.68, -3748.52, 7309.20, 6123.19, 6451.56, -2850.09, 5802.04, 0.000, 0.000, 0.000, 11:33:33.006, 1561451613006
131, 6948.02, 6900.94, -3746.49, 7308.62, 6123.69, 6452.50, -2850.63, 5803.34, 0.000, 0.000, 0.000, 11:33:33.006, 1561451613006
132, 6947.06, 6899.49, -3747.78, 7307.68, 6123.01, 6451.36, -2849.71, 5804.01, 0.000, 0.000, 0.000, 11:33:33.006, 1561451613006
133, 6946.18, 6898.66, -3748.48, 7306.52, 6122.37, 6450.13, -2848.13, 5804.26, 0.000, 0.000, 0.000, 11:33:33.006, 1561451613006
134, 6947.48, 6899.85, -3747.92, 7307.59, 6123.22, 6450.58, -2849.56, 5805.24, 0.000, 0.000, 0.000, 11:33:33.006, 1561451613006
135, 6948.96, 6900.79, -3750.09, 7309.31, 6123.48, 6451.45, -2849.20, 5803.00, 0.012, 0.044, -1.038, 11:33:33.006, 1561451613006
136, 6948.29, 6900.52, -3750.31, 7308.53, 6123.13, 6450.71, -2849.78, 5802.60, 0.000, 0.000, 0.000, 11:33:33.065, 1561451613065
137, 6947.10, 6899.65, -3749.06, 7307.50, 6122.99, 6450.29, -2850.00, 5803.29, 0.000, 0.000, 0.000, 11:33:33.066, 1561451613066
138, 6945.78, 6898.66, -3747.76, 7306.40, 6122.19, 6449.89, -2848.64, 5803.61, 0.000, 0.000, 0.000, 11:33:33.067, 1561451613067
139, 6947.28, 6900.50, -3747.02, 7307.77, 6122.46, 6450.78, -2850.50, 5804.41, 0.000, 0.000, 0.000, 11:33:33.067, 1561451613067
140, 6950.01, 6902.69, -3747.18, 7309.60, 6123.17, 6452.34, -2849.45, 5803.97, 0.000, 0.000, 0.000, 11:33:33.067, 1561451613067
141, 6948.71, 6900.52, -3749.91, 7308.10, 6123.39, 6450.67, -2849.56, 5803.09, 0.000, 0.000, 0.000, 11:33:33.067, 1561451613067
142, 6947.19, 6899.58, -3750.15, 7306.94, 6122.77, 6449.13, -2848.24, 5802.85, 0.000, 0.000, 0.000, 11:33:33.067, 1561451613067
143, 6945.76, 6898.71, -3748.88, 7305.44, 6122.28, 6449.22, -2850.09, 5803.97, 0.000, 0.000, 0.000, 11:33:33.067, 1561451613067
144, 6947.50, 6899.98, -3746.80, 7306.72, 6122.34, 6450.67, -2849.58, 5803.92, 0.000, 0.000, 0.000, 11:33:33.067, 1561451613067
145, 6949.58, 6902.11, -3747.40, 7309.31, 6123.30, 6451.54, -2849.56, 5803.07, 0.006, 0.046, -1.038, 11:33:33.068, 1561451613068
146, 6949.47, 6902.62, -3748.14, 7310.29, 6124.67, 6452.05, -2849.29, 5803.92, 0.000, 0.000, 0.000, 11:33:33.068, 1561451613068
147, 6947.35, 6900.83, -3747.81, 7307.97, 6123.30, 6450.58, -2848.86, 5803.23, 0.000, 0.000, 0.000, 11:33:33.068, 1561451613068
148, 6945.67, 6899.00, -3747.94, 7306.54, 6122.54, 6449.55, -2849.56, 5803.92, 0.000, 0.000, 0.000, 11:33:33.068, 1561451613068
149, 6946.30, 6899.29, -3748.19, 7306.54, 6122.21, 6449.66, -2849.22, 5803.50, 0.000, 0.000, 0.000, 11:33:33.068, 1561451613068
150, 6949.36, 6900.83, -3747.81, 7308.30, 6122.41, 6451.23, -2848.82, 5802.38, 0.000, 0.000, 0.000, 11:33:33.068, 1561451613068
151, 6948.71, 6900.36, -3748.70, 7308.44, 6122.21, 6451.41, -2848.86, 5803.65, 0.000, 0.000, 0.000, 11:33:33.125, 1561451613125
152, 6946.88, 6899.45, -3748.07, 7307.50, 6122.46, 6450.78, -2849.24, 5804.50, 0.000, 0.000, 0.000, 11:33:33.125, 1561451613125
153, 6945.76, 6898.66, -3749.66, 7306.14, 6122.21, 6449.55, -2850.23, 5805.17, 0.000, 0.000, 0.000, 11:33:33.125, 1561451613125
154, 6946.05, 6898.60, -3749.86, 7305.96, 6121.36, 6449.75, -2850.36, 5803.27, 0.000, 0.000, 0.000, 11:33:33.125, 1561451613125
155, 6949.45, 6901.91, -3749.06, 7309.09, 6123.60, 6452.39, -2851.01, 5803.36, 0.004, 0.042, -1.036, 11:33:33.125, 1561451613125
156, 6948.84, 6901.41, -3748.19, 7308.46, 6124.06, 6452.30, -2849.76, 5803.99, 0.000, 0.000, 0.000, 11:33:33.125, 1561451613125
157, 6947.88, 6900.16, -3747.81, 7307.14, 6123.39, 6452.39, -2851.01, 5804.48, 0.000, 0.000, 0.000, 11:33:33.125, 1561451613125
158, 6945.25, 6897.66, -3747.52, 7305.76, 6122.39, 6450.29, -2851.57, 5804.55, 0.000, 0.000, 0.000, 11:33:33.125, 1561451613125
159, 6946.48, 6898.15, -3747.54, 7306.49, 6121.92, 6450.62, -2850.88, 5805.37, 0.000, 0.000, 0.000, 11:33:33.125, 1561451613125
160, 6949.20, 6900.65, -3747.05, 7308.15, 6123.44, 6451.90, -2850.25, 5804.44, 0.000, 0.000, 0.000, 11:33:33.125, 1561451613125
161, 6949.31, 6901.01, -3747.40, 7308.93, 6124.18, 6452.73, -2850.36, 5805.62, 0.000, 0.000, 0.000, 11:33:33.125, 1561451613125
162, 6947.48, 6899.83, -3748.92, 7307.70, 6123.08, 6451.18, -2851.93, 5804.77, 0.000, 0.000, 0.000, 11:33:33.125, 1561451613125
163, 6946.05, 6897.88, -3748.34, 7305.24, 6121.72, 6449.39, -2853.09, 5804.37, 0.000, 0.000, 0.000, 11:33:33.125, 1561451613125
164, 6947.59, 6899.45, -3748.54, 7306.47, 6122.75, 6450.11, -2850.79, 5804.46, 0.000, 0.000, 0.000, 11:33:33.125, 1561451613125
165, 6949.69, 6902.51, -3748.90, 7308.75, 6122.61, 6451.92, -2850.79, 5804.28, 0.004, 0.040, -1.034, 11:33:33.125, 1561451613125
166, 6949.22, 6901.50, -3748.70, 7308.22, 6122.97, 6451.79, -2851.21, 5803.67, 0.000, 0.000, 0.000, 11:33:33.191, 1561451613191
167, 6947.23, 6899.29, -3748.95, 7307.08, 6122.23, 6451.36, -2852.84, 5804.03, 0.000, 0.000, 0.000, 11:33:33.191, 1561451613191
168, 6945.11, 6897.44, -3748.66, 7305.24, 6121.09, 6450.02, -2851.28, 5803.50, 0.000, 0.000, 0.000, 11:33:33.192, 1561451613192
169, 6946.90, 6898.60, -3748.81, 7306.81, 6122.25, 6450.58, -2849.60, 5805.13, 0.000, 0.000, 0.000, 11:33:33.192, 1561451613192
170, 6950.30, 6901.91, -3748.34, 7309.42, 6123.73, 6452.95, -2847.81, 5805.64, 0.000, 0.000, 0.000, 11:33:33.192, 1561451613192
171, 6949.02, 6900.99, -3748.30, 7308.22, 6122.66, 6451.41, -2849.22, 5803.32, 0.000, 0.000, 0.000, 11:33:33.192, 1561451613192
172, 6946.72, 6899.25, -3748.36, 7306.47, 6121.92, 6449.71, -2850.63, 5803.61, 0.000, 0.000, 0.000, 11:33:33.192, 1561451613192
173, 6945.51, 6897.84, -3750.71, 7304.64, 6121.61, 6449.35, -2850.88, 5804.10, 0.000, 0.000, 0.000, 11:33:33.192, 1561451613192
174, 6946.05, 6898.11, -3750.26, 7305.40, 6122.23, 6449.80, -2850.79, 5804.23, 0.000, 0.000, 0.000, 11:33:33.192, 1561451613192
175, 6948.29, 6900.10, -3746.78, 7307.95, 6122.88, 6451.63, -2850.12, 5801.80, -0.002, 0.038, -1.034, 11:33:33.192, 1561451613192
176, 6948.75, 6900.41, -3748.34, 7308.01, 6122.39, 6451.85, -2851.52, 5803.16, 0.000, 0.000, 0.000, 11:33:33.192, 1561451613192
177, 6947.91, 6899.18, -3747.74, 7306.92, 6122.90, 6451.23, -2853.07, 5804.26, 0.000, 0.000, 0.000, 11:33:33.192, 1561451613192
178, 6945.40, 6897.55, -3748.07, 7304.91, 6121.81, 6449.35, -2851.81, 5804.17, 0.000, 0.000, 0.000, 11:33:33.192, 1561451613192
179, 6946.09, 6898.15, -3748.66, 7305.09, 6121.34, 6449.22, -2850.16, 5804.59, 0.000, 0.000, 0.000, 11:33:33.192, 1561451613192
180, 6948.62, 6900.72, -3750.00, 7307.37, 6122.50, 6452.01, -2850.92, 5804.05, 0.000, 0.000, 0.000, 11:33:33.192, 1561451613192
181, 6948.35, 6900.21, -3748.01, 7307.39, 6121.76, 6451.76, -2850.58, 5804.50, 0.000, 0.000, 0.000, 11:33:33.244, 1561451613244
182, 6947.21, 6899.45, -3747.18, 7307.25, 6122.50, 6451.45, -2850.25, 5804.90, 0.000, 0.000, 0.000, 11:33:33.244, 1561451613244
183, 6946.25, 6898.89, -3746.09, 7305.96, 6122.46, 6450.51, -2850.79, 5805.93, 0.000, 0.000, 0.000, 11:33:33.244, 1561451613244
184, 6946.90, 6898.93, -3747.60, 7305.73, 6122.05, 6450.24, -2849.76, 5804.32, 0.000, 0.000, 0.000, 11:33:33.244, 1561451613244
185, 6949.74, 6901.73, -3748.23, 7308.22, 6122.84, 6452.30, -2850.72, 5803.94, 0.002, 0.036, -1.034, 11:33:33.244, 1561451613244
186, 6949.20, 6900.48, -3748.52, 7307.66, 6122.46, 6452.41, -2850.38, 5804.66, 0.000, 0.000, 0.000, 11:33:33.244, 1561451613244
187, 6947.84, 6899.38, -3748.75, 7306.74, 6122.68, 6451.67, -2850.99, 5804.79, 0.000, 0.000, 0.000, 11:33:33.244, 1561451613244
188, 6946.41, 6898.26, -3748.59, 7305.15, 6122.37, 6450.69, -2850.25, 5804.73, 0.000, 0.000, 0.000, 11:33:33.244, 1561451613244
189, 6946.05, 6898.33, -3746.64, 7305.27, 6122.30, 6450.85, -2850.38, 5804.17, 0.000, 0.000, 0.000, 11:33:33.244, 1561451613244
190, 6949.07, 6900.83, -3746.91, 7307.99, 6122.84, 6452.26, -2850.58, 5804.28, 0.000, 0.000, 0.000, 11:33:33.244, 1561451613244
191, 6948.82, 6899.96, -3749.75, 7307.37, 6122.95, 6451.56, -2849.78, 5804.59, 0.000, 0.000, 0.000, 11:33:33.244, 1561451613244
192, 6947.37, 6898.89, -3748.52, 7305.65, 6122.17, 6451.70, -2852.08, 5804.21, 0.000, 0.000, 0.000, 11:33:33.244, 1561451613244
193, 6945.40, 6897.84, -3747.27, 7304.64, 6121.81, 6451.03, -2850.76, 5805.71, 0.000, 0.000, 0.000, 11:33:33.245, 1561451613245
194, 6945.45, 6897.93, -3748.43, 7303.79, 6121.38, 6449.60, -2850.92, 5805.51, 0.000, 0.000, 0.000, 11:33:33.245, 1561451613245
195, 6948.55, 6900.32, -3749.42, 7306.07, 6122.90, 6450.96, -2853.00, 5803.70, 0.006, 0.044, -1.032, 11:33:33.245, 1561451613245
196, 6948.38, 6900.21, -3746.20, 7306.18, 6123.08, 6451.50, -2852.80, 5803.83, 0.000, 0.000, 0.000, 11:33:33.304, 1561451613304
197, 6947.10, 6898.89, -3748.36, 7304.93, 6121.67, 6450.94, -2851.84, 5803.59, 0.000, 0.000, 0.000, 11:33:33.305, 1561451613305
198, 6945.76, 6897.21, -3752.08, 7303.86, 6120.33, 6449.51, -2851.12, 5804.93, 0.000, 0.000, 0.000, 11:33:33.305, 1561451613305
199, 6946.27, 6897.66, -3748.14, 7304.13, 6121.11, 6449.57, -2852.89, 5805.49, 0.000, 0.000, 0.000, 11:33:33.305, 1561451613305
200, 6948.64, 6900.45, -3747.38, 7306.18, 6122.75, 6452.17, -2851.03, 5804.57, 0.000, 0.000, 0.000, 11:33:33.305, 1561451613305
201, 6948.44, 6900.10, -3749.19, 7306.32, 6122.28, 6451.99, -2851.88, 5804.73, 0.000, 0.000, 0.000, 11:33:33.305, 1561451613305
202, 6947.35, 6899.02, -3748.34, 7304.95, 6121.58, 6450.91, -2850.94, 5805.22, 0.000, 0.000, 0.000, 11:33:33.305, 1561451613305
203, 6945.51, 6897.55, -3748.16, 7303.50, 6121.45, 6449.55, -2850.41, 5805.06, 0.000, 0.000, 0.000, 11:33:33.305, 1561451613305
204, 6945.54, 6897.88, -3747.65, 7303.72, 6120.65, 6449.80, -2851.57, 5804.46, 0.000, 0.000, 0.000, 11:33:33.306, 1561451613306
205, 6948.64, 6900.63, -3747.87, 7305.96, 6122.81, 6451.38, -2851.48, 5804.39, 0.012, 0.042, -1.032, 11:33:33.306, 1561451613306
206, 6948.67, 6900.10, -3748.03, 7306.14, 6122.66, 6451.29, -2852.55, 5804.17, 0.000, 0.000, 0.000, 11:33:33.306, 1561451613306
207, 6946.61, 6899.25, -3747.07, 7305.24, 6121.83, 6450.47, -2850.94, 5804.99, 0.000, 0.000, 0.000, 11:33:33.306, 1561451613306
208, 6946.03, 6898.49, -3747.16, 7304.13, 6121.11, 6450.33, -2849.67, 5806.63, 0.000, 0.000, 0.000, 11:33:33.306, 1561451613306
209, 6947.15, 6898.33, -3747.74, 7304.46, 6121.99, 6451.00, -2852.57, 5806.89, 0.000, 0.000, 0.000, 11:33:33.306, 1561451613306
210, 6949.11, 6899.71, -3748.97, 7306.29, 6122.59, 6451.70, -2851.10, 5804.99, 0.000, 0.000, 0.000, 11:33:33.306, 1561451613306
0, 12946.80, 19938.85, 28315.37, 25546.77, 28712.04, 13743.28, 30220.27, 23244.20, 0.010, 0.024, -0.514, 11:33:39.967, 1561451619967
1, 12944.41, 19942.25, 28305.04, 25530.38, 28709.27, 13730.77, 30251.23, 23269.82, 0.000, 0.000, 0.000, 11:33:39.967, 1561451619967
2, 12920.16, 19931.14, 28268.99, 25509.62, 28685.65, 13701.06, 30252.26, 23288.66, 0.000, 0.000, 0.000, 11:33:39.967, 1561451619967
3, 12918.93, 19945.38, 28282.04, 25513.98, 28657.93, 13691.54, 30141.66, 23227.80, 0.000, 0.000, 0.000, 11:33:39.967, 1561451619967
4, 12957.84, 19974.37, 28315.66, 25538.74, 28672.28, 13714.49, 30099.84, 23175.81, 0.000, 0.000, 0.000, 11:33:39.967, 1561451619967
5, 12984.44, 19980.29, 28323.86, 25553.14, 28701.29, 13733.11, 30206.06, 23228.92, 0.000, 0.000, 0.000, 11:33:39.967, 1561451619967
6, 12980.53, 19984.63, 28310.70, 25551.37, 28698.95, 13726.67, 30224.68, 23263.52, 0.000, 0.000, 0.000, 11:33:39.967, 1561451619967
7, 12950.91, 19979.49, 28297.96, 25536.00, 28685.58, 13709.64, 30213.79, 23290.70, 0.010, 0.032, -0.766, 11:33:39.967, 1561451619967
8, 12960.30, 19998.96, 28311.70, 25557.81, 28677.31, 13712.93, 30117.28, 23246.53, 0.000, 0.000, 0.000, 11:33:39.967, 1561451619967
9, 13006.88, 20023.43, 28340.65, 25585.66, 28696.60, 13732.91, 30067.63, 23198.18, 0.000, 0.000, 0.000, 11:33:39.967, 1561451619967
10, 13005.43, 20016.84, 28322.95, 25569.19, 28708.85, 13732.64, 30164.59, 23226.46, 0.000, 0.000, 0.000, 11:33:39.967, 1561451619967
11, 12992.69, 20009.28, 28300.82, 25551.35, 28702.03, 13718.41, 30193.14, 23253.01, 0.000, 0.000, 0.000, 11:33:39.967, 1561451619967
12, 12972.57, 20002.84, 28286.67, 25535.15, 28694.39, 13707.56, 30179.91, 23281.89, 0.000, 0.000, 0.000, 11:33:39.968, 1561451619968
13, 12997.61, 20031.59, 28308.37, 25551.04, 28681.56, 13708.73, 30086.41, 23238.73, 0.000, 0.000, 0.000, 11:33:39.968, 1561451619968
14, 13040.14, 20071.44, 28336.38, 25580.03, 28689.60, 13723.93, 30041.62, 23184.19, 0.000, 0.000, 0.000, 11:33:39.968, 1561451619968
15, 13031.71, 20054.41, 28319.68, 25572.21, 28702.12, 13716.44, 30127.74, 23205.94, 0.000, 0.000, 0.000, 11:33:40.027, 1561451620027
16, 13016.40, 20047.30, 28302.34, 25557.86, 28701.85, 13715.54, 30140.37, 23230.03, 0.012, 0.034, -0.898, 11:33:40.028, 1561451620028
17, 13006.59, 20040.37, 28296.70, 25546.79, 28695.46, 13707.90, 30123.78, 23266.33, 0.000, 0.000, 0.000, 11:33:40.028, 1561451620028
18, 13023.51, 20055.46, 28308.04, 25565.77, 28676.95, 13705.15, 30029.39, 23219.86, 0.000, 0.000, 0.000, 11:33:40.028, 1561451620028
19, 13060.53, 20092.09, 28333.43, 25601.22, 28685.13, 13723.99, 29977.62, 23166.06, 0.000, 0.000, 0.000, 11:33:40.028, 1561451620028
20, 13057.78, 20086.95, 28324.04, 25588.66, 28703.84, 13732.55, 30075.86, 23198.29, 0.000, 0.000, 0.000, 11:33:40.028, 1561451620028
21, 13024.67, 20070.44, 28311.34, 25568.41, 28698.66, 13716.01, 30096.51, 23218.41, 0.000, 0.000, 0.000, 11:33:40.028, 1561451620028
22, 13004.80, 20046.90, 28286.29, 25545.58, 28677.47, 13697.42, 30079.95, 23244.12, 0.000, 0.000, 0.000, 11:33:40.028, 1561451620028
23, 13018.42, 20067.24, 28286.22, 25552.42, 28661.51, 13698.02, 29981.15, 23199.21, 0.000, 0.000, 0.000, 11:33:40.028, 1561451620028
24, 13059.63, 20112.66, 28328.00, 25578.31, 28684.06, 13720.04, 29927.02, 23153.90, 0.000, 0.000, 0.000, 11:33:40.028, 1561451620028
25, 13064.75, 20123.12, 28336.18, 25576.09, 28704.11, 13720.01, 30022.26, 23190.18, 0.000, 0.000, 0.000, 11:33:40.028, 1561451620028
26, 13052.59, 20095.63, 28305.04, 25570.15, 28697.49, 13706.96, 30041.28, 23211.71, 0.012, 0.038, -0.962, 11:33:40.028, 1561451620028
27, 13021.81, 20067.80, 28270.33, 25549.85, 28678.54, 13691.52, 30026.95, 23231.44, 0.000, 0.000, 0.000, 11:33:40.028, 1561451620028
28, 13043.29, 20087.15, 28291.90, 25555.29, 28663.16, 13682.31, 29936.70, 23184.30, 0.000, 0.000, 0.000, 11:33:40.028, 1561451620028
29, 13074.72, 20111.92, 28310.99, 25591.63, 28671.92, 13700.48, 29878.98, 23130.52, 0.000, 0.000, 0.000, 11:33:40.029, 1561451620029
30, 13064.04, 20110.47, 28304.08, 25602.76, 28689.87, 13718.92, 29973.04, 23160.29, 0.000, 0.000, 0.000, 11:33:40.090, 1561451620090
31, 13041.86, 20105.53, 28300.82, 25591.12, 28682.49, 13709.46, 29985.89, 23187.32, 0.000, 0.000, 0.000, 11:33:40.091, 1561451620091
32, 13026.51, 20078.33, 28274.75, 25556.56, 28661.82, 13684.63, 29967.34, 23213.81, 0.000, 0.000, 0.000, 11:33:40.091, 1561451620091
33, 13034.33, 20079.78, 28268.59, 25546.72, 28648.48, 13674.98, 29882.74, 23167.04, 0.000, 0.000, 0.000, 11:33:40.092, 1561451620092
34, 13075.84, 20113.84, 28294.20, 25572.05, 28668.26, 13699.36, 29845.32, 23123.64, 0.000, 0.000, 0.000, 11:33:40.094, 1561451620094
35, 13072.15, 20125.17, 28308.35, 25588.66, 28689.71, 13713.78, 29943.83, 23158.28, 0.000, 0.000, 0.000, 11:33:40.094, 1561451620094
36, 13041.48, 20111.34, 28286.04, 25561.74, 28679.86, 13695.72, 29975.19, 23177.93, 0.016, 0.040, -0.992, 11:33:40.094, 1561451620094
37, 13016.05, 20069.54, 28250.03, 25535.01, 28659.99, 13672.43, 29978.63, 23200.95, 0.000, 0.000, 0.000, 11:33:40.094, 1561451620094
38, 13031.83, 20083.02, 28269.66, 25546.43, 28645.17, 13664.13, 29899.50, 23152.79, 0.000, 0.000, 0.000, 11:33:40.095, 1561451620095
39, 13072.39, 20125.33, 28314.52, 25582.87, 28666.69, 13687.47, 29857.66, 23115.06, 0.000, 0.000, 0.000, 11:33:40.095, 1561451620095
40, 13065.98, 20120.99, 28307.46, 25582.51, 28686.85, 13693.06, 29947.71, 23143.58, 0.000, 0.000, 0.000, 11:33:40.095, 1561451620095
41, 13041.77, 20105.75, 28260.70, 25565.16, 28676.15, 13676.23, 29974.16, 23164.92, 0.000, 0.000, 0.000, 11:33:40.095, 1561451620095
42, 13034.38, 20090.82, 28236.76, 25552.13, 28657.15, 13668.11, 29973.17, 23195.83, 0.000, 0.000, 0.000, 11:33:40.095, 1561451620095
43, 13051.90, 20093.46, 28251.89, 25569.03, 28637.52, 13662.46, 29898.72, 23154.02, 0.000, 0.000, 0.000, 11:33:40.095, 1561451620095
44, 13065.67, 20112.86, 28281.13, 25577.30, 28648.10, 13675.13, 29846.22, 23097.20, 0.000, 0.000, 0.000, 11:33:40.095, 1561451620095
45, 13060.59, 20112.35, 28279.52, 25577.44, 28664.99, 13689.66, 29922.28, 23124.29, 0.000, 0.000, 0.000, 11:33:40.148, 1561451620148
46, 13049.46, 20103.96, 28272.74, 25567.44, 28666.85, 13684.16, 29944.43, 23147.71, 0.016, 0.042, -1.012, 11:33:40.148, 1561451620148
47, 13030.66, 20095.80, 28254.28, 25558.06, 28661.62, 13677.05, 29926.17, 23176.95, 0.000, 0.000, 0.000, 11:33:40.148, 1561451620148
48, 13033.82, 20092.52, 28262.97, 25562.13, 28641.77, 13670.24, 29840.27, 23131.30, 0.000, 0.000, 0.000, 11:33:40.148, 1561451620148
49, 13069.47, 20122.47, 28301.13, 25592.75, 28652.23, 13684.25, 29784.32, 23080.61, 0.000, 0.000, 0.000, 11:33:40.148, 1561451620148
50, 13079.91, 20130.40, 28296.66, 25605.67, 28675.97, 13691.07, 29854.35, 23107.08, 0.000, 0.000, 0.000, 11:33:40.148, 1561451620148
51, 13063.75, 20110.87, 28272.05, 25586.80, 28668.55, 13678.24, 29869.17, 23124.51, 0.000, 0.000, 0.000, 11:33:40.148, 1561451620148
52, 13037.30, 20089.10, 28250.48, 25560.54, 28651.72, 13667.98, 29854.75, 23151.62, 0.000, 0.000, 0.000, 11:33:40.148, 1561451620148
53, 13038.87, 20105.44, 28269.97, 25575.33, 28631.98, 13662.15, 29786.02, 23115.57, 0.000, 0.000, 0.000, 11:33:40.148, 1561451620148
54, 13089.32, 20140.80, 28292.41, 25605.29, 28647.67, 13678.80, 29760.59, 23067.13, 0.000, 0.000, 0.000, 11:33:40.148, 1561451620148
55, 13102.95, 20143.12, 28274.02, 25608.68, 28664.39, 13685.21, 29858.89, 23084.68, 0.000, 0.000, 0.000, 11:33:40.148, 1561451620148
56, 13063.37, 20118.83, 28270.96, 25579.18, 28660.77, 13671.40, 29881.69, 23100.13, 0.014, 0.044, -1.024, 11:33:40.148, 1561451620148
57, 13017.72, 20069.54, 28252.74, 25552.78, 28653.77, 13653.92, 29867.32, 23132.27, 0.000, 0.000, 0.000, 11:33:40.148, 1561451620148
58, 13026.78, 20070.26, 28248.92, 25550.32, 28632.20, 13641.63, 29790.98, 23087.92, 0.000, 0.000, 0.000, 11:33:40.148, 1561451620148
59, 13061.69, 20098.98, 28274.15, 25570.91, 28635.82, 13650.70, 29744.20, 23030.66, 0.000, 0.000, 0.000, 11:33:40.148, 1561451620148
60, 13069.78, 20102.02, 28278.53, 25567.85, 28660.30, 13657.00, 29833.83, 23063.67, 0.000, 0.000, 0.000, 11:33:40.207, 1561451620207
61, 13051.12, 20074.50, 28252.38, 25547.06, 28653.64, 13644.24, 29861.06, 23087.00, 0.000, 0.000, 0.000, 11:33:40.207, 1561451620207
62, 13022.42, 20045.76, 28229.16, 25529.31, 28641.77, 13631.23, 29847.09, 23112.55, 0.000, 0.000, 0.000, 11:33:40.207, 1561451620207
63, 13028.21, 20043.88, 28238.70, 25533.25, 28624.51, 13623.68, 29783.50, 23074.55, 0.000, 0.000, 0.000, 11:33:40.207, 1561451620207
64, 13067.95, 20083.00, 28273.82, 25551.31, 28637.70, 13643.24, 29752.16, 23040.38, 0.000, 0.000, 0.000, 11:33:40.207, 1561451620207
65, 13058.63, 20071.98, 28263.76, 25535.26, 28647.76, 13637.85, 29831.26, 23059.69, 0.000, 0.000, 0.000, 11:33:40.207, 1561451620207
66, 13034.11, 20035.95, 28246.05, 25518.29, 28636.18, 13616.35, 29841.01, 23076.63, 0.016, 0.050, -1.026, 11:33:40.207, 1561451620207
67, 13011.67, 20000.25, 28227.97, 25489.44, 28618.37, 13589.32, 29830.55, 23098.25, 0.000, 0.000, 0.000, 11:33:40.207, 1561451620207
68, 13020.43, 20013.10, 28226.30, 25487.58, 28609.09, 13585.88, 29776.50, 23066.62, 0.000, 0.000, 0.000, 11:33:40.207, 1561451620207
69, 13051.07, 20046.29, 28255.31, 25520.17, 28615.53, 13609.02, 29743.76, 23018.12, 0.000, 0.000, 0.000, 11:33:40.207, 1561451620207
70, 13072.84, 20047.48, 28253.92, 25528.44, 28635.06, 13619.45, 29835.73, 23046.77, 0.000, 0.000, 0.000, 11:33:40.207, 1561451620207
71, 13037.19, 20019.70, 28235.01, 25502.71, 28622.62, 13599.31, 29845.57, 23061.08, 0.000, 0.000, 0.000, 11:33:40.207, 1561451620207
72, 13000.11, 20000.74, 28224.69, 25480.05, 28606.16, 13577.66, 29814.50, 23081.64, 0.000, 0.000, 0.000, 11:33:40.207, 1561451620207
73, 13022.26, 20021.24, 28235.08, 25477.72, 28597.83, 13581.63, 29742.55, 23053.79, 0.000, 0.000, 0.000, 11:33:40.208, 1561451620208
74, 13062.56, 20043.39, 28247.46, 25504.23, 28609.25, 13596.52, 29718.50, 23011.59, 0.000, 0.000, 0.000, 11:33:40.208, 1561451620208
75, 13062.98, 20044.71, 28243.26, 25512.19, 28625.45, 13600.77, 29805.56, 23041.76, 0.000, 0.000, 0.000, 11:33:40.267, 1561451620267
76, 13042.51, 20026.25, 28224.69, 25490.06, 28612.89, 13580.27, 29826.14, 23055.04, 0.014, 0.052, -1.028, 11:33:40.267, 1561451620267
77, 13023.69, 20006.29, 28203.88, 25477.28, 28602.88, 13569.72, 29808.24, 23085.24, 0.000, 0.000, 0.000, 11:33:40.267, 1561451620267
78, 13027.20, 20015.52, 28205.73, 25489.84, 28591.57, 13571.33, 29742.35, 23060.32, 0.000, 0.000, 0.000, 11:33:40.267, 1561451620267
79, 13049.89, 20046.92, 28242.43, 25522.54, 28607.06, 13589.64, 29709.78, 23011.81, 0.000, 0.000, 0.000, 11:33:40.267, 1561451620267
80, 13050.65, 20053.18, 28249.94, 25525.11, 28629.52, 13598.11, 29786.11, 23041.21, 0.000, 0.000, 0.000, 11:33:40.267, 1561451620267
81, 13038.69, 20031.34, 28225.45, 25504.44, 28622.55, 13586.71, 29803.75, 23059.78, 0.000, 0.000, 0.000, 11:33:40.267, 1561451620267
82, 13022.80, 20004.83, 28199.83, 25486.80, 28609.58, 13568.49, 29794.52, 23086.87, 0.000, 0.000, 0.000, 11:33:40.267, 1561451620267
83, 13026.15, 20016.88, 28199.05, 25488.56, 28591.32, 13563.02, 29739.08, 23056.31, 0.000, 0.000, 0.000, 11:33:40.267, 1561451620267
84, 13066.87, 20065.38, 28235.08, 25519.68, 28605.29, 13588.16, 29695.28, 23009.62, 0.000, 0.000, 0.000, 11:33:40.267, 1561451620267
85, 13059.21, 20065.96, 28253.56, 25533.40, 28627.53, 13605.24, 29774.00, 23038.54, 0.000, 0.000, 0.000, 11:33:40.267, 1561451620267
86, 13034.38, 20036.01, 28227.41, 25505.82, 28616.89, 13586.66, 29792.68, 23056.25, 0.018, 0.042, -1.034, 11:33:40.267, 1561451620267
87, 13017.03, 20013.44, 28197.80, 25485.75, 28611.42, 13568.63, 29772.99, 23078.89, 0.000, 0.000, 0.000, 11:33:40.268, 1561451620268
88, 13022.24, 20017.21, 28200.14, 25487.92, 28593.33, 13560.45, 29708.78, 23057.08, 0.000, 0.000, 0.000, 11:33:40.268, 1561451620268
89, 13063.54, 20057.09, 28231.17, 25516.93, 28605.11, 13580.43, 29661.63, 23011.32, 0.000, 0.000, 0.000, 11:33:40.268, 1561451620268
90, 13065.51, 20074.21, 28231.32, 25534.36, 28622.26, 13589.50, 29747.44, 23038.01, 0.000, 0.000, 0.000, 11:33:40.327, 1561451620327
91, 13044.21, 20050.21, 28210.85, 25515.81, 28612.15, 13576.99, 29775.99, 23051.26, 0.000, 0.000, 0.000, 11:33:40.328, 1561451620328
92, 13032.36, 20024.88, 28191.05, 25498.51, 28604.53, 13565.30, 29768.90, 23069.30, 0.000, 0.000, 0.000, 11:33:40.328, 1561451620328
93, 13031.29, 20025.51, 28197.53, 25505.89, 28592.89, 13554.23, 29699.39, 23037.14, 0.000, 0.000, 0.000, 11:33:40.328, 1561451620328
94, 13046.56, 20065.85, 28230.43, 25533.74, 28606.39, 13572.96, 29660.61, 22990.09, 0.000, 0.000, 0.000, 11:33:40.328, 1561451620328
95, 13043.34, 20057.29, 28231.15, 25527.01, 28622.77, 13585.64, 29751.74, 23022.74, 0.000, 0.000, 0.000, 11:33:40.328, 1561451620328
96, 13034.31, 20031.52, 28210.90, 25512.35, 28619.08, 13583.62, 29791.37, 23049.77, 0.022, 0.042, -1.040, 11:33:40.328, 1561451620328
97, 13010.50, 20016.93, 28187.81, 25498.49, 28602.90, 13569.77, 29779.81, 23072.79, 0.000, 0.000, 0.000, 11:33:40.328, 1561451620328
98, 13015.82, 20022.11, 28184.03, 25497.01, 28580.75, 13558.19, 29712.75, 23047.22, 0.000, 0.000, 0.000, 11:33:40.328, 1561451620328
99, 13048.66, 20053.40, 28214.74, 25524.57, 28596.84, 13569.14, 29657.17, 22995.81, 0.000, 0.000, 0.000, 11:33:40.328, 1561451620328
100, 13051.47, 20059.88, 28219.43, 25529.33, 28619.53, 13580.36, 29727.80, 23027.48, 0.000, 0.000, 0.000, 11:33:40.328, 1561451620328
101, 13028.45, 20036.53, 28193.62, 25513.51, 28613.52, 13562.43, 29739.89, 23042.35, 0.000, 0.000, 0.000, 11:33:40.328, 1561451620328
102, 13011.82, 20018.78, 28168.20, 25496.28, 28606.25, 13550.57, 29720.96, 23064.41, 0.000, 0.000, 0.000, 11:33:40.328, 1561451620328
103, 13015.84, 20023.01, 28177.95, 25495.72, 28590.70, 13549.87, 29650.75, 23033.83, 0.000, 0.000, 0.000, 11:33:40.328, 1561451620328
104, 13058.11, 20056.35, 28228.58, 25526.05, 28603.91, 13568.69, 29598.76, 22986.94, 0.000, 0.000, 0.000, 11:33:40.329, 1561451620329
105, 13063.95, 20067.19, 28230.05, 25536.76, 28630.04, 13575.96, 29678.53, 23014.54, 0.000, 0.000, 0.000, 11:33:40.387, 1561451620387
106, 13014.97, 20037.02, 28195.81, 25510.09, 28618.95, 13557.20, 29712.15, 23034.72, 0.018, 0.044, -1.030, 11:33:40.387, 1561451620387
107, 12986.85, 20018.80, 28169.97, 25494.15, 28605.40, 13545.11, 29695.95, 23055.35, 0.000, 0.000, 0.000, 11:33:40.388, 1561451620388
108, 12996.09, 20015.07, 28178.57, 25510.02, 28580.19, 13541.67, 29623.28, 23026.63, 0.000, 0.000, 0.000, 11:33:40.388, 1561451620388
109, 13039.85, 20045.07, 28206.43, 25544.47, 28597.69, 13569.54, 29577.46, 22983.83, 0.000, 0.000, 0.000, 11:33:40.388, 1561451620388
110, 13046.80, 20050.03, 28205.24, 25540.11, 28619.49, 13577.66, 29646.75, 23007.99, 0.000, 0.000, 0.000, 11:33:40.388, 1561451620388
111, 13044.63, 20041.33, 28192.57, 25526.65, 28618.03, 13569.10, 29677.37, 23035.77, 0.000, 0.000, 0.000, 11:33:40.388, 1561451620388
112, 13017.01, 20026.67, 28163.40, 25518.74, 28602.07, 13551.77, 29665.48, 23053.74, 0.000, 0.000, 0.000, 11:33:40.388, 1561451620388
113, 13018.33, 20027.63, 28164.78, 25530.07, 28580.08, 13545.85, 29589.89, 23032.91, 0.000, 0.000, 0.000, 11:33:40.388, 1561451620388
114, 13047.07, 20060.94, 28203.61, 25542.75, 28591.32, 13560.20, 29540.87, 22980.45, 0.000, 0.000, 0.000, 11:33:40.388, 1561451620388
115, 13032.56, 20056.40, 28213.35, 25540.91, 28611.97, 13566.86, 29626.45, 23008.57, 0.000, 0.000, 0.000, 11:33:40.388, 1561451620388
116, 13011.40, 20023.97, 28190.00, 25521.87, 28607.13, 13551.77, 29670.29, 23034.54, 0.012, 0.042, -1.032, 11:33:40.388, 1561451620388
117, 12995.37, 20008.14, 28161.50, 25509.42, 28599.08, 13539.14, 29649.45, 23056.45, 0.000, 0.000, 0.000, 11:33:40.388, 1561451620388
118, 12986.97, 20002.91, 28160.27, 25500.72, 28576.82, 13534.47, 29579.09, 23025.83, 0.000, 0.000, 0.000, 11:33:40.388, 1561451620388
119, 13020.85, 20025.73, 28194.91, 25535.10, 28585.51, 13556.42, 29532.04, 22986.49, 0.000, 0.000, 0.000, 11:33:40.388, 1561451620388
120, 13033.95, 20031.81, 28194.91, 25553.43, 28614.19, 13567.67, 29610.99, 23019.12, 0.000, 0.000, 0.000, 11:33:40.447, 1561451620447
121, 13017.59, 20018.91, 28173.90, 25531.23, 28606.97, 13555.01, 29636.71, 23036.09, 0.000, 0.000, 0.000, 11:33:40.447, 1561451620447
122, 12987.12, 20002.20, 28149.47, 25507.94, 28589.29, 13538.29, 29625.31, 23055.73, 0.000, 0.000, 0.000, 11:33:40.447, 1561451620447
123, 12988.58, 20025.62, 28155.82, 25512.53, 28574.38, 13529.58, 29576.47, 23035.51, 0.000, 0.000, 0.000, 11:33:40.448, 1561451620448
124, 13019.15, 20044.84, 28188.74, 25530.03, 28577.35, 13547.08, 29534.72, 22987.79, 0.000, 0.000, 0.000, 11:33:40.448, 1561451620448
125, 13021.30, 20028.06, 28184.90, 25540.69, 28596.89, 13552.73, 29600.15, 23009.85, 0.000, 0.000, 0.000, 11:33:40.448, 1561451620448
126, 12998.46, 20009.01, 28167.82, 25534.59, 28597.54, 13538.18, 29624.87, 23031.64, 0.014, 0.042, -1.032, 11:33:40.448, 1561451620448
127, 12977.85, 19984.61, 28148.15, 25512.15, 28583.34, 13522.04, 29614.16, 23049.99, 0.000, 0.000, 0.000, 11:33:40.448, 1561451620448
128, 12977.22, 19986.84, 28151.48, 25506.67, 28563.85, 13512.84, 29542.10, 23013.82, 0.000, 0.000, 0.000, 11:33:40.448, 1561451620448
129, 13003.66, 20033.85, 28178.57, 25547.46, 28586.07, 13543.23, 29509.53, 22975.69, 0.000, 0.000, 0.000, 11:33:40.448, 1561451620448
130, 13008.92, 20035.68, 28176.52, 25556.40, 28608.18, 13562.66, 29602.96, 23014.70, 0.000, 0.000, 0.000, 11:33:40.448, 1561451620448
131, 12988.55, 20011.43, 28150.41, 25537.83, 28594.27, 13548.89, 29625.78, 23030.43, 0.000, 0.000, 0.000, 11:33:40.448, 1561451620448
132, 12952.79, 19991.96, 28124.06, 25519.68, 28579.05, 13524.95, 29612.84, 23047.46, 0.000, 0.000, 0.000, 11:33:40.448, 1561451620448
133, 12955.70, 19994.28, 28120.55, 25527.95, 28557.06, 13514.20, 29552.29, 23023.14, 0.000, 0.000, 0.000, 11:33:40.448, 1561451620448
134, 12994.01, 20034.18, 28154.44, 25569.43, 28573.71, 13546.03, 29501.13, 22975.45, 0.000, 0.000, 0.000, 11:33:40.448, 1561451620448
135, 13010.35, 20048.80, 28166.53, 25576.83, 28604.17, 13566.23, 29578.26, 23004.95, 0.010, 0.046, -1.038, 11:33:40.507, 1561451620507
136, 12999.53, 20031.23, 28164.56, 25563.15, 28606.63, 13564.20, 29619.50, 23033.00, 0.000, 0.000, 0.000, 11:33:40.507, 1561451620507
137, 12951.90, 20010.13, 28122.29, 25539.57, 28588.28, 13546.68, 29609.98, 23053.79, 0.000, 0.000, 0.000, 11:33:40.508, 1561451620508
138, 12939.78, 20003.47, 28116.62, 25530.23, 28558.40, 13526.47, 29542.14, 23023.99, 0.000, 0.000, 0.000, 11:33:40.508, 1561451620508
139, 12975.32, 20024.12, 28157.30, 25563.60, 28564.01, 13543.28, 29479.89, 22974.80, 0.000, 0.000, 0.000, 11:33:40.508, 1561451620508
140, 12986.68, 20033.73, 28160.76, 25591.92, 28598.05, 13559.19, 29548.18, 22999.01, 0.000, 0.000, 0.000, 11:33:40.508, 1561451620508
141, 12971.79, 20025.64, 28148.22, 25578.13, 28601.94, 13553.16, 29587.47, 23033.03, 0.000, 0.000, 0.000, 11:33:40.508, 1561451620508
142, 12952.97, 19992.96, 28119.14, 25547.98, 28588.24, 13540.42, 29571.49, 23048.58, 0.000, 0.000, 0.000, 11:33:40.508, 1561451620508
143, 12951.81, 19998.06, 28124.55, 25543.33, 28574.22, 13535.12, 29500.59, 23024.67, 0.000, 0.000, 0.000, 11:33:40.508, 1561451620508
144, 12983.82, 20030.07, 28171.04, 25573.05, 28580.48, 13555.17, 29437.67, 22975.49, 0.000, 0.000, 0.000, 11:33:40.508, 1561451620508
145, 13007.33, 20034.02, 28179.13, 25595.52, 28609.85, 13568.83, 29540.60, 23005.11, 0.014, 0.046, -1.028, 11:33:40.508, 1561451620508
146, 12981.87, 20020.99, 28145.18, 25581.21, 28610.30, 13553.38, 29587.23, 23033.00, 0.000, 0.000, 0.000, 11:33:40.508, 1561451620508
147, 12932.32, 20008.61, 28111.34, 25546.08, 28600.02, 13535.66, 29571.60, 23055.67, 0.000, 0.000, 0.000, 11:33:40.508, 1561451620508
148, 12931.67, 20006.69, 28113.44, 25543.55, 28576.93, 13531.57, 29520.19, 23034.72, 0.000, 0.000, 0.000, 11:33:40.508, 1561451620508
149, 12976.93, 20029.46, 28148.22, 25575.80, 28580.73, 13539.03, 29475.00, 22982.15, 0.000, 0.000, 0.000, 11:33:40.508, 1561451620508
150, 13001.79, 20052.42, 28153.65, 25593.51, 28605.22, 13555.86, 29552.38, 23010.29, 0.000, 0.000, 0.000, 11:33:40.567, 1561451620567
151, 12973.33, 20034.49, 28131.35, 25572.05, 28600.04, 13548.40, 29579.65, 23038.08, 0.000, 0.000, 0.000, 11:33:40.567, 1561451620567
152, 12932.18, 19982.21, 28106.74, 25541.81, 28579.30, 13523.16, 29565.63, 23059.58, 0.000, 0.000, 0.000, 11:33:40.567, 1561451620567
153, 12939.65, 19976.45, 28107.77, 25543.42, 28563.38, 13518.09, 29489.17, 23031.42, 0.000, 0.000, 0.000, 11:33:40.567, 1561451620567
154, 12975.39, 20009.41, 28144.85, 25568.45, 28569.98, 13531.95, 29431.72, 22968.07, 0.000, 0.000, 0.000, 11:33:40.567, 1561451620567
155, 12990.27, 20026.92, 28157.14, 25584.34, 28592.02, 13540.15, 29525.56, 22994.67, 0.010, 0.044, -1.032, 11:33:40.567, 1561451620567
156, 12951.94, 20014.15, 28133.65, 25570.15, 28593.02, 13532.30, 29566.19, 23024.26, 0.000, 0.000, 0.000, 11:33:40.567, 1561451620567
157, 12922.84, 19996.92, 28099.52, 25561.14, 28584.06, 13520.28, 29544.60, 23047.87, 0.000, 0.000, 0.000, 11:33:40.567, 1561451620567
158, 12932.21, 19997.79, 28096.68, 25560.43, 28562.15, 13510.91, 29472.88, 23025.51, 0.000, 0.000, 0.000, 11:33:40.567, 1561451620567
159, 12962.04, 20029.31, 28128.42, 25576.18, 28571.70, 13527.81, 29419.14, 22975.60, 0.000, 0.000, 0.000, 11:33:40.567, 1561451620567
160, 12973.91, 20049.74, 28133.94, 25580.01, 28585.62, 13539.19, 29487.00, 22994.24, 0.000, 0.000, 0.000, 11:33:40.567, 1561451620567
161, 12956.57, 20018.51, 28113.93, 25563.85, 28581.33, 13531.43, 29523.72, 23011.43, 0.000, 0.000, 0.000, 11:33:40.567, 1561451620567
162, 12912.92, 19972.54, 28084.00, 25543.21, 28562.87, 13509.57, 29502.92, 23025.11, 0.000, 0.000, 0.000, 11:33:40.567, 1561451620567
163, 12915.80, 19972.80, 28081.46, 25548.58, 28545.14, 13501.41, 29437.92, 23001.15, 0.000, 0.000, 0.000, 11:33:40.568, 1561451620568
164, 12956.05, 20011.34, 28118.11, 25570.57, 28554.46, 13511.00, 29379.98, 22948.04, 0.000, 0.000, 0.000, 11:33:40.568, 1561451620568
165, 12965.93, 20022.94, 28119.46, 25578.08, 28579.77, 13531.10, 29453.54, 22973.66, 0.008, 0.046, -1.036, 11:33:40.628, 1561451620628
166, 12940.79, 20005.44, 28101.46, 25563.67, 28575.21, 13516.99, 29486.04, 23000.12, 0.000, 0.000, 0.000, 11:33:40.628, 1561451620628
167, 12922.91, 19986.79, 28095.76, 25545.38, 28560.88, 13499.02, 29453.23, 23022.79, 0.000, 0.000, 0.000, 11:33:40.628, 1561451620628
168, 12910.37, 19974.88, 28095.00, 25546.59, 28550.98, 13503.31, 29381.72, 23017.91, 0.000, 0.000, 0.000, 11:33:40.628, 1561451620628
169, 12938.08, 20006.69, 28109.75, 25585.68, 28566.89, 13529.80, 29336.08, 22977.37, 0.000, 0.000, 0.000, 11:33:40.628, 1561451620628
170, 12956.23, 20026.34, 28113.78, 25600.21, 28590.74, 13544.06, 29412.64, 22999.34, 0.000, 0.000, 0.000, 11:33:40.628, 1561451620628
171, 12941.53, 20013.71, 28101.91, 25591.05, 28594.34, 13541.60, 29451.30, 23033.56, 0.000, 0.000, 0.000, 11:33:40.628, 1561451620628
172, 12920.94, 19994.17, 28062.97, 25574.04, 28579.97, 13530.09, 29440.93, 23063.18, 0.000, 0.000, 0.000, 11:33:40.628, 1561451620628
173, 12920.18, 20001.66, 28069.05, 25585.50, 28568.12, 13528.64, 29395.96, 23057.81, 0.000, 0.000, 0.000, 11:33:40.628, 1561451620628
174, 12944.92, 20038.92, 28110.31, 25611.39, 28574.67, 13545.65, 29360.07, 23007.03, 0.000, 0.000, 0.000, 11:33:40.628, 1561451620628
175, 12940.79, 20047.26, 28112.93, 25625.36, 28591.95, 13561.65, 29451.71, 23034.86, 0.012, 0.040, -1.036, 11:33:40.628, 1561451620628
176, 12929.79, 20032.73, 28079.85, 25602.94, 28588.44, 13551.71, 29497.26, 23076.88, 0.000, 0.000, 0.000, 11:33:40.628, 1561451620628
177, 12911.78, 20022.51, 28058.32, 25589.21, 28583.10, 13546.12, 29495.81, 23121.27, 0.000, 0.000, 0.000, 11:33:40.628, 1561451620628
178, 12896.06, 20016.66, 28065.92, 25600.08, 28577.38, 13539.93, 29457.56, 23113.29, 0.000, 0.000, 0.000, 11:33:40.629, 1561451620629
179, 12924.54, 20022.65, 28097.42, 25622.29, 28583.61, 13556.06, 29401.95, 23063.00, 0.000, 0.000, 0.000, 11:33:40.629, 1561451620629
180, 12929.10, 20022.42, 28100.25, 25617.24, 28597.07, 13553.56, 29486.60, 23081.04, 0.000, 0.000, 0.000, 11:33:40.688, 1561451620688
181, 12914.05, 20022.78, 28085.93, 25607.07, 28599.37, 13549.52, 29559.98, 23122.77, 0.000, 0.000, 0.000, 11:33:40.689, 1561451620689
182, 12888.10, 19991.27, 28040.91, 25592.95, 28593.20, 13543.68, 29578.44, 23176.50, 0.000, 0.000, 0.000, 11:33:40.689, 1561451620689
183, 12879.10, 19990.42, 28035.32, 25594.89, 28580.97, 13537.49, 29556.85, 23181.33, 0.000, 0.000, 0.000, 11:33:40.689, 1561451620689
184, 12914.88, 20033.40, 28081.61, 25626.16, 28589.67, 13555.95, 29526.61, 23142.15, 0.000, 0.000, 0.000, 11:33:40.690, 1561451620690
185, 12930.55, 20024.61, 28073.25, 25634.46, 28613.45, 13567.33, 29622.83, 23170.55, 0.016, 0.044, -1.040, 11:33:40.690, 1561451620690
186, 12904.15, 20003.00, 28049.22, 25618.61, 28605.11, 13552.73, 29667.83, 23199.17, 0.000, 0.000, 0.000, 11:33:40.690, 1561451620690
187, 12872.62, 19990.97, 28030.94, 25589.24, 28596.37, 13536.75, 29659.78, 23228.36, 0.000, 0.000, 0.000, 11:33:40.690, 1561451620690
188, 12862.51, 19985.68, 28024.88, 25581.08, 28580.13, 13528.82, 29613.09, 23222.59, 0.000, 0.000, 0.000, 11:33:40.690, 1561451620690
189, 12900.15, 20010.06, 28058.68, 25608.75, 28585.06, 13542.88, 29568.74, 23174.36, 0.000, 0.000, 0.000, 11:33:40.690, 1561451620690
190, 12900.80, 20010.46, 28056.71, 25607.45, 28600.42, 13546.54, 29648.31, 23194.61, 0.000, 0.000, 0.000, 11:33:40.690, 1561451620690
191, 12878.76, 19997.19, 28039.55, 25598.47, 28596.17, 13532.66, 29675.74, 23221.07, 0.000, 0.000, 0.000, 11:33:40.690, 1561451620690
192, 12862.69, 19972.24, 28024.73, 25578.42, 28587.72, 13520.57, 29639.82, 23236.00, 0.000, 0.000, 0.000, 11:33:40.690, 1561451620690
193, 12860.50, 19974.77, 28017.26, 25574.78, 28573.55, 13512.55, 29532.71, 23197.73, 0.000, 0.000, 0.000, 11:33:40.690, 1561451620690
194, 12880.84, 20008.86, 28059.84, 25604.68, 28571.65, 13523.43, 29400.50, 23105.62, 0.000, 0.000, 0.000, 11:33:40.690, 1561451620690
195, 12897.47, 20014.89, 28071.33, 25619.77, 28595.10, 13535.54, 29431.39, 23102.94, 0.016, 0.044, -1.038, 11:33:40.747, 1561451620747
196, 12889.13, 19993.21, 28039.55, 25598.11, 28589.45, 13517.51, 29461.41, 23108.75, 0.000, 0.000, 0.000, 11:33:40.748, 1561451620748
197, 12872.64, 19983.42, 28019.47, 25585.55, 28576.44, 13506.69, 29433.51, 23121.56, 0.000, 0.000, 0.000, 11:33:40.748, 1561451620748
198, 12861.04, 19988.49, 28022.16, 25586.04, 28552.25, 13499.63, 29336.75, 23086.56, 0.000, 0.000, 0.000, 11:33:40.748, 1561451620748
199, 12886.21, 20014.11, 28050.16, 25605.67, 28549.61, 13507.23, 29219.16, 23007.79, 0.000, 0.000, 0.000, 11:33:40.748, 1561451620748
200, 12898.95, 20021.60, 28058.70, 25612.53, 28574.85, 13515.43, 29261.00, 23017.67, 0.000, 0.000, 0.000, 11:33:40.748, 1561451620748
201, 12881.49, 20018.98, 28040.75, 25610.87, 28578.89, 13515.63, 29292.21, 23048.63, 0.000, 0.000, 0.000, 11:33:40.748, 1561451620748
202, 12854.85, 20011.92, 28022.25, 25594.60, 28576.23, 13514.27, 29286.06, 23077.37, 0.000, 0.000, 0.000, 11:33:40.748, 1561451620748
203, 12841.26, 19987.89, 28034.03, 25591.12, 28547.27, 13501.44, 29220.68, 23052.38, 0.000, 0.000, 0.000, 11:33:40.748, 1561451620748
204, 12865.53, 20004.10, 28058.43, 25604.55, 28545.17, 13505.77, 29119.94, 22977.03, 0.000, 0.000, 0.000, 11:33:40.748, 1561451620748
205, 12870.18, 20019.76, 28057.65, 25621.83, 28570.47, 13525.78, 29167.97, 22993.73, 0.018, 0.044, -1.036, 11:33:40.748, 1561451620748
206, 12851.40, 20009.19, 28046.61, 25607.41, 28571.83, 13519.27, 29212.50, 23022.99, 0.000, 0.000, 0.000, 11:33:40.748, 1561451620748
207, 12824.27, 19984.27, 28006.27, 25577.21, 28549.95, 13495.00, 29210.06, 23044.31, 0.000, 0.000, 0.000, 11:33:40.748, 1561451620748
208, 12830.53, 19982.44, 27997.77, 25583.85, 28534.33, 13488.34, 29146.54, 23039.24, 0.000, 0.000, 0.000, 11:33:40.748, 1561451620748
209, 12872.44, 20012.10, 28041.09, 25615.14, 28540.00, 13503.20, 29049.51, 22973.95, 0.000, 0.000, 0.000, 11:33:40.748, 1561451620748
210, 12875.01, 20024.32, 28051.06, 25627.01, 28553.75, 13512.37, 29111.34, 22980.79, 0.000, 0.000, 0.000, 11:33:40.807, 1561451620807
211, 12854.47, 20010.00, 28025.80, 25610.14, 28553.86, 13503.85, 29174.01, 23012.33, 0.000, 0.000, 0.000, 11:33:40.808, 1561451620808
212, 12824.22, 19981.72, 27990.71, 25578.82, 28544.07, 13489.63, 29177.01, 23041.92, 0.000, 0.000, 0.000, 11:33:40.809, 1561451620809
213, 12809.29, 19966.99, 27987.54, 25577.95, 28526.66, 13478.12, 29128.48, 23031.13, 0.000, 0.000, 0.000, 11:33:40.809, 1561451620809
214, 12842.04, 19989.48, 28025.98, 25600.59, 28524.36, 13489.66, 29040.82, 22960.14, 0.000, 0.000, 0.000, 11:33:40.809, 1561451620809
215, 12860.59, 20002.60, 28042.97, 25609.94, 28548.92, 13505.68, 29097.14, 22981.95, 0.018, 0.044, -1.036, 11:33:40.809, 1561451620809
216, 12846.87, 19996.92, 28029.85, 25598.85, 28564.75, 13503.87, 29157.00, 23017.02, 0.000, 0.000, 0.000, 11:33:40.809, 1561451620809
217, 12825.05, 19975.31, 28008.34, 25578.04, 28551.31, 13487.96, 29149.87, 23039.71, 0.000, 0.000, 0.000, 11:33:40.809, 1561451620809
218, 12811.26, 19969.43, 27997.32, 25580.21, 28531.96, 13479.26, 29085.86, 23026.63, 0.000, 0.000, 0.000, 11:33:40.809, 1561451620809
219, 12845.06, 19997.17, 28026.87, 25604.06, 28529.95, 13490.84, 29007.36, 22962.97, 0.000, 0.000, 0.000, 11:33:40.809, 1561451620809
220, 12860.61, 20020.41, 28036.53, 25618.81, 28547.40, 13508.52, 29086.37, 22980.23, 0.000, 0.000, 0.000, 11:33:40.809, 1561451620809
221, 12850.62, 20011.87, 28018.83, 25601.53, 28552.38, 13507.92, 29139.46, 23014.36, 0.000, 0.000, 0.000, 11:33:40.809, 1561451620809
222, 12825.59, 19975.62, 27993.05, 25585.62, 28545.59, 13491.31, 29133.40, 23043.04, 0.000, 0.000, 0.000, 11:33:40.809, 1561451620809
223, 12821.74, 19970.90, 27996.90, 25584.21, 28529.07, 13480.94, 29062.47, 23031.82, 0.000, 0.000, 0.000, 11:33:40.809, 1561451620809
224, 12853.68, 19991.71, 28017.26, 25612.04, 28529.72, 13497.64, 28959.12, 22968.21, 0.000, 0.000, 0.000, 11:33:40.809, 1561451620809
225, 12858.04, 20001.66, 28021.31, 25624.78, 28549.23, 13511.54, 29023.09, 22982.13, 0.016, 0.040, -1.034, 11:33:40.867, 1561451620867
226, 12842.40, 19996.74, 28021.24, 25605.55, 28550.84, 13508.48, 29092.98, 23025.96, 0.000, 0.000, 0.000, 11:33:40.867, 1561451620867
227, 12820.07, 19976.74, 27999.11, 25584.43, 28539.80, 13498.87, 29098.26, 23060.63, 0.000, 0.000, 0.000, 11:33:40.867, 1561451620867
228, 12819.08, 19969.96, 27986.30, 25587.47, 28524.38, 13488.00, 29059.01, 23057.57, 0.000, 0.000, 0.000, 11:33:40.867, 1561451620867
229, 12849.12, 19997.19, 28011.52, 25615.32, 28524.22, 13494.49, 28976.78, 22990.47, 0.000, 0.000, 0.000, 11:33:40.867, 1561451620867
230, 12869.87, 20010.71, 28032.55, 25624.24, 28552.32, 13515.16, 29030.49, 23010.25, 0.000, 0.000, 0.000, 11:33:40.867, 1561451620867
231, 12846.40, 19998.62, 28011.16, 25606.22, 28559.07, 13507.56, 29084.29, 23044.27, 0.000, 0.000, 0.000, 11:33:40.867, 1561451620867
232, 12808.67, 19982.08, 27979.49, 25600.30, 28542.44, 13485.83, 29096.49, 23073.01, 0.000, 0.000, 0.000, 11:33:40.867, 1561451620867
233, 12807.57, 19966.63, 27960.24, 25587.45, 28520.33, 13473.94, 29046.78, 23061.39, 0.000, 0.000, 0.000, 11:33:40.867, 1561451620867
234, 12846.60, 19990.15, 27988.00, 25598.60, 28519.69, 13482.62, 28957.78, 22994.33, 0.000, 0.000, 0.000, 11:33:40.867, 1561451620867
235, 12851.02, 19996.27, 28009.66, 25608.55, 28544.38, 13495.89, 29035.09, 23007.77, 0.010, 0.038, -1.034, 11:33:40.867, 1561451620867
236, 12829.21, 19979.49, 27997.53, 25595.76, 28541.75, 13492.65, 29100.05, 23037.18, 0.000, 0.000, 0.000, 11:33:40.867, 1561451620867
237, 12809.99, 19958.97, 27988.38, 25583.04, 28540.70, 13477.72, 29102.62, 23075.67, 0.000, 0.000, 0.000, 11:33:40.867, 1561451620867
238, 12806.59, 19952.08, 27971.93, 25571.83, 28527.82, 13467.33, 29053.13, 23065.86, 0.000, 0.000, 0.000, 11:33:40.867, 1561451620867
239, 12832.87, 19983.42, 28002.91, 25592.79, 28524.87, 13477.41, 28958.56, 22988.81, 0.000, 0.000, 0.000, 11:33:40.868, 1561451620868
240, 12846.51, 19988.87, 28019.19, 25608.86, 28553.97, 13499.40, 29016.61, 23008.19, 0.000, 0.000, 0.000, 11:33:40.927, 1561451620927
241, 12840.34, 19975.24, 27997.71, 25598.45, 28561.55, 13499.80, 29075.95, 23044.96, 0.000, 0.000, 0.000, 11:33:40.927, 1561451620927
242, 12823.87, 19960.40, 27968.71, 25580.68, 28547.31, 13485.61, 29084.85, 23077.71, 0.000, 0.000, 0.000, 11:33:40.927, 1561451620927
243, 12803.03, 19958.45, 27954.23, 25573.41, 28528.18, 13471.71, 29040.08, 23070.89, 0.000, 0.000, 0.000, 11:33:40.927, 1561451620927
244, 12837.46, 19995.96, 27995.85, 25614.34, 28536.16, 13485.32, 28955.57, 23008.66, 0.000, 0.000, 0.000, 11:33:40.927, 1561451620927
245, 12855.09, 20007.81, 28005.17, 25626.95, 28552.99, 13500.65, 29021.66, 23021.54, 0.010, 0.046, -1.034, 11:33:40.927, 1561451620927
246, 12836.56, 19989.63, 27988.18, 25602.29, 28553.21, 13495.74, 29072.55, 23057.34, 0.000, 0.000, 0.000, 11:33:40.928, 1561451620928
247, 12826.46, 19960.33, 27954.97, 25587.63, 28542.60, 13480.63, 29065.60, 23084.41, 0.000, 0.000, 0.000, 11:33:40.928, 1561451620928
248, 12813.76, 19948.80, 27948.04, 25575.40, 28515.53, 13464.09, 29013.59, 23070.62, 0.000, 0.000, 0.000, 11:33:40.928, 1561451620928
249, 12836.07, 19985.57, 27993.75, 25603.83, 28519.82, 13478.57, 28923.65, 23007.07, 0.000, 0.000, 0.000, 11:33:40.928, 1561451620928
250, 12853.91, 19993.95, 28012.52, 25620.78, 28538.01, 13494.04, 28984.94, 23019.77, 0.000, 0.000, 0.000, 11:33:40.928, 1561451620928
251, 12840.83, 19973.45, 27990.89, 25609.55, 28543.76, 13487.18, 29048.42, 23055.62, 0.000, 0.000, 0.000, 11:33:40.928, 1561451620928
252, 12806.36, 19953.71, 27956.51, 25576.32, 28533.25, 13472.54, 29062.81, 23081.60, 0.000, 0.000, 0.000, 11:33:40.928, 1561451620928
253, 12805.85, 19953.07, 27947.05, 25569.46, 28513.76, 13460.64, 29022.87, 23072.63, 0.000, 0.000, 0.000, 11:33:40.928, 1561451620928
254, 12843.58, 19984.16, 27969.27, 25602.94, 28518.23, 13470.64, 28912.18, 23003.99, 0.014, 0.044, -1.034, 11:33:40.928, 1561451620928
255, 12836.94, 19997.12, 27990.60, 25627.37, 28537.66, 13493.81, 28964.80, 23011.21, 0.000, 0.000, 0.000, 11:33:40.988, 1561451620988
0, 12820.94, 19972.49, 27964.87, 25606.13, 28537.72, 13486.37, 29018.22, 23050.79, 0.000, 0.000, 0.000, 11:33:40.988, 1561451620988
1, 12795.32, 19941.06, 27934.27, 25576.59, 28528.80, 13470.14, 29026.29, 23082.09, 0.000, 0.000, 0.000, 11:33:40.988, 1561451620988
2, 12795.03, 19934.98, 27925.78, 25568.65, 28503.50, 13452.24, 28995.78, 23073.68, 0.000, 0.000, 0.000, 11:33:40.988, 1561451620988
3, 12835.00, 19974.86, 27967.35, 25590.13, 28507.50, 13463.21, 28897.77, 23009.78, 0.000, 0.000, 0.000, 11:33:40.988, 1561451620988
4, 12837.88, 19995.33, 27996.27, 25611.16, 28532.74, 13480.05, 28951.14, 23022.32, 0.000, 0.000, 0.000, 11:33:40.989, 1561451620989
5, 12813.81, 19964.53, 27954.86, 25588.25, 28530.79, 13474.08, 29005.79, 23050.04, 0.000, 0.000, 0.000, 11:33:40.989, 1561451620989
6, 12791.66, 19932.57, 27917.71, 25563.62, 28517.83, 13455.46, 29004.67, 23077.97, 0.000, 0.000, 0.000, 11:33:40.989, 1561451620989
7, 12802.48, 19934.74, 27919.23, 25560.58, 28500.93, 13450.39, 28978.99, 23083.67, 0.000, 0.000, 0.000, 11:33:40.989, 1561451620989
8, 12839.80, 19979.17, 27942.54, 25587.45, 28496.66, 13460.31, 28877.58, 23011.08, 0.012, 0.046, -1.038, 11:33:40.989, 1561451620989
9, 12824.38, 19986.06, 27952.00, 25599.83, 28519.57, 13473.32, 28924.23, 23012.66, 0.000, 0.000, 0.000, 11:33:40.989, 1561451620989
10, 12798.81, 19961.38, 27950.50, 25581.39, 28525.90, 13465.99, 28991.17, 23047.89, 0.000, 0.000, 0.000, 11:33:40.989, 1561451620989
11, 12779.39, 19930.29, 27922.11, 25555.04, 28516.15, 13445.09, 29002.24, 23077.95, 0.000, 0.000, 0.000, 11:33:40.989, 1561451620989
12, 12779.41, 19925.98, 27899.29, 25553.29, 28495.17, 13436.82, 28963.32, 23079.94, 0.000, 0.000, 0.000, 11:33:40.989, 1561451620989
13, 12817.14, 19963.26, 27936.19, 25584.79, 28489.38, 13448.06, 28859.21, 23004.64, 0.000, 0.000, 0.000, 11:33:40.989, 1561451620989
14, 12832.61, 19976.45, 27958.14, 25593.89, 28509.67, 13460.98, 28907.42, 23010.14, 0.000, 0.000, 0.000, 11:33:41.047, 1561451621047
15, 12820.47, 19959.64, 27939.77, 25581.21, 28520.13, 13460.49, 28983.53, 23043.66, 0.000, 0.000, 0.000, 11:33:41.047, 1561451621047
16, 12784.48, 19938.72, 27907.98, 25558.57, 28510.70, 13446.83, 28992.60, 23072.12, 0.000, 0.000, 0.000, 11:33:41.048, 1561451621048
17, 12766.40, 19934.47, 27894.39, 25547.35, 28492.42, 13433.60, 28947.32, 23074.13, 0.000, 0.000, 0.000, 11:33:41.048, 1561451621048
18, 12804.89, 19970.41, 27929.67, 25575.51, 28490.14, 13444.75, 28850.69, 23006.11, 0.012, 0.048, -1.040, 11:33:41.048, 1561451621048
19, 12834.89, 19985.99, 27952.02, 25606.25, 28515.93, 13473.21, 28914.19, 23019.77, 0.000, 0.000, 0.000, 11:33:41.048, 1561451621048
20, 12827.31, 19969.21, 27923.70, 25583.31, 28512.94, 13462.19, 28981.00, 23051.40, 0.000, 0.000, 0.000, 11:33:41.048, 1561451621048
21, 12784.66, 19929.89, 27880.00, 25562.66, 28495.30, 13445.62, 28979.62, 23079.56, 0.000, 0.000, 0.000, 11:33:41.048, 1561451621048
22, 12773.89, 19915.72, 27872.02, 25557.79, 28482.00, 13433.22, 28937.26, 23077.64, 0.000, 0.000, 0.000, 11:33:41.048, 1561451621048
23, 12798.32, 19950.21, 27912.50, 25582.60, 28484.12, 13449.11, 28830.51, 23008.08, 0.000, 0.000, 0.000, 11:33:41.048, 1561451621048
24, 12809.67, 19964.00, 27942.88, 25593.91, 28508.60, 13465.81, 28882.16, 23009.91, 0.000, 0.000, 0.000, 11:33:41.048, 1561451621048
25, 12797.18, 19953.42, 27925.49, 25571.80, 28511.41, 13455.35, 28949.49, 23045.79, 0.000, 0.000, 0.000, 11:33:41.048, 1561451621048
26, 12780.03, 19936.06, 27894.48, 25557.99, 28499.35, 13436.26, 28960.97, 23077.33, 0.000, 0.000, 0.000, 11:33:41.048, 1561451621048
27, 12766.60, 19921.84, 27874.03, 25553.25, 28472.59, 13417.26, 28931.09, 23073.57, 0.000, 0.000, 0.000, 11:33:41.048, 1561451621048
28, 12793.22, 19953.60, 27904.34, 25565.23, 28472.23, 13431.74, 28834.38, 22995.54, 0.014, 0.046, -1.040, 11:33:41.048, 1561451621048
29, 12808.91, 19968.24, 27919.05, 25585.97, 28505.60, 13459.15, 28884.02, 23000.26, 0.000, 0.000, 0.000, 11:33:41.108, 1561451621108
30, 12802.36, 19956.26, 27891.45, 25567.13, 28506.83, 13448.13, 28954.29, 23037.41, 0.000, 0.000, 0.000, 11:33:41.108, 1561451621108
31, 12775.32, 19940.19, 27866.57, 25545.05, 28496.91, 13433.15, 28971.26, 23072.21, 0.000, 0.000, 0.000, 11:33:41.108, 1561451621108
32, 12767.56, 19928.37, 27860.82, 25547.66, 28485.35, 13426.54, 28932.30, 23075.52, 0.000, 0.000, 0.000, 11:33:41.108, 1561451621108
33, 12796.44, 19936.86, 27894.71, 25575.11, 28481.15, 13436.44, 28815.69, 23003.92, 0.000, 0.000, 0.000, 11:33:41.108, 1561451621108
34, 12803.26, 19949.42, 27906.67, 25576.32, 28503.08, 13451.15, 28850.87, 23011.10, 0.000, 0.000, 0.000, 11:33:41.108, 1561451621108
35, 12786.96, 19941.46, 27891.13, 25567.62, 28512.76, 13447.90, 28933.86, 23052.54, 0.000, 0.000, 0.000, 11:33:41.108, 1561451621108
36, 12766.96, 19918.49, 27869.79, 25544.22, 28494.14, 13429.22, 28938.38, 23084.34, 0.000, 0.000, 0.000, 11:33:41.108, 1561451621108
37, 12753.61, 19902.98, 27860.22, 25541.03, 28471.38, 13411.11, 28883.33, 23079.94, 0.000, 0.000, 0.000, 11:33:41.108, 1561451621108
38, 12784.01, 19941.67, 27899.27, 25559.62, 28469.59, 13424.26, 28769.33, 23009.35, 0.014, 0.044, -1.038, 11:33:41.108, 1561451621108
39, 12805.27, 19964.89, 27918.80, 25571.96, 28502.88, 13447.46, 28823.80, 23021.96, 0.000, 0.000, 0.000, 11:33:41.108, 1561451621108
40, 12775.54, 19936.21, 27876.49, 25550.81, 28505.38, 13438.67, 28903.62, 23058.21, 0.000, 0.000, 0.000, 11:33:41.108, 1561451621108
41, 12762.76, 19917.55, 27841.11, 25540.40, 28500.28, 13429.11, 28906.33, 23086.65, 0.000, 0.000, 0.000, 11:33:41.108, 1561451621108
42, 12764.21, 19909.68, 27832.30, 25536.46, 28479.94, 13420.19, 28865.89, 23087.52, 0.000, 0.000, 0.000, 11:33:41.108, 1561451621108
43, 12789.67, 19930.51, 27872.38, 25558.79, 28472.28, 13424.35, 28752.93, 23020.26, 0.000, 0.000, 0.000, 11:33:41.108, 1561451621108
44, 12783.43, 19939.97, 27891.47, 25572.27, 28493.15, 13438.05, 28800.47, 23019.97, 0.000, 0.000, 0.000, 11:33:41.168, 1561451621168
45, 12756.14, 19919.16, 27873.63, 25547.78, 28493.91, 13432.84, 28871.68, 23048.18, 0.000, 0.000, 0.000, 11:33:41.169, 1561451621169
46, 12738.21, 19900.38, 27849.91, 25520.26, 28479.50, 13417.48, 28870.54, 23075.49, 0.000, 0.000, 0.000, 11:33:41.169, 1561451621169
47, 12740.00, 19896.49, 27821.91, 25514.52, 28463.58, 13399.94, 28836.41, 23078.82, 0.000, 0.000, 0.000, 11:33:41.169, 1561451621169
48, 12781.89, 19932.26, 27863.77, 25548.29, 28464.59, 13412.75, 28721.68, 23003.39, 0.008, 0.042, -1.034, 11:33:41.169, 1561451621169
49, 12799.97, 19960.06, 27885.48, 25564.65, 28492.64, 13434.16, 28770.36, 23001.89, 0.000, 0.000, 0.000, 11:33:41.169, 1561451621169
50, 12761.01, 19925.60, 27859.82, 25552.11, 28494.05, 13426.51, 28846.98, 23031.19, 0.000, 0.000, 0.000, 11:33:41.169, 1561451621169
51, 12742.26, 19905.35, 27841.58, 25534.14, 28491.12, 13420.75, 28853.62, 23068.81, 0.000, 0.000, 0.000, 11:33:41.169, 1561451621169
52, 12737.14, 19901.90, 27831.25, 25524.93, 28474.09, 13410.35, 28828.21, 23068.88, 0.000, 0.000, 0.000, 11:33:41.169, 1561451621169
53, 12771.07, 19918.91, 27860.78, 25549.29, 28468.75, 13419.65, 28715.64, 22993.78, 0.000, 0.000, 0.000, 11:33:41.169, 1561451621169
54, 12789.15, 19932.05, 27870.66, 25560.92, 28491.41, 13437.78, 28747.81, 22990.78, 0.000, 0.000, 0.000, 11:33:41.169, 1561451621169
55, 12776.75, 19924.14, 27849.40, 25549.12, 28490.49, 13426.00, 28809.12, 23021.94, 0.000, 0.000, 0.000, 11:33:41.169, 1561451621169
56, 12740.29, 19906.08, 27843.03, 25521.87, 28475.38, 13406.26, 28798.97, 23045.05, 0.000, 0.000, 0.000, 11:33:41.169, 1561451621169
57, 12737.45, 19904.85, 27850.14, 25515.70, 28462.24, 13402.53, 28754.89, 23041.52, 0.000, 0.000, 0.000, 11:33:41.169, 1561451621169
58, 12771.18, 19924.66, 27856.26, 25542.01, 28450.71, 13405.59, 28612.56, 22946.19, 0.008, 0.046, -1.036, 11:33:41.169, 1561451621169
59, 12784.15, 19949.54, 27861.13, 25558.50, 28467.81, 13417.24, 28611.26, 22927.03, 0.000, 0.000, 0.000, 11:33:41.227, 1561451621227
60, 12776.28, 19934.16, 27854.05, 25548.36, 28479.29, 13417.28, 28633.99, 22932.24, 0.000, 0.000, 0.000, 11:33:41.227, 1561451621227
61, 12752.14, 19904.18, 27833.84, 25521.76, 28469.46, 13403.02, 28571.59, 22912.24, 0.000, 0.000, 0.000, 11:33:41.227, 1561451621227
62, 12736.54, 19892.45, 27820.39, 25509.69, 28457.41, 13394.46, 28590.72, 22939.73, 0.000, 0.000, 0.000, 11:33:41.227, 1561451621227
63, 12770.65, 19924.26, 27854.14, 25537.76, 28464.37, 13412.16, 28568.05, 22914.02, 0.000, 0.000, 0.000, 11:33:41.227, 1561451621227
64, 12788.82, 19938.56, 27870.52, 25556.16, 28488.82, 13430.94, 28628.07, 22924.82, 0.000, 0.000, 0.000, 11:33:41.227, 1561451621227
65, 12765.46, 19916.32, 27846.50, 25540.13, 28489.80, 13423.54, 28698.66, 22964.76, 0.000, 0.000, 0.000, 11:33:41.227, 1561451621227
66, 12733.45, 19885.65, 27818.87, 25518.94, 28477.48, 13407.56, 28706.19, 23000.21, 0.000, 0.000, 0.000, 11:33:41.227, 1561451621227
67, 12715.77, 19865.65, 27801.46, 25502.98, 28455.54, 13390.21, 28680.77, 23007.74, 0.000, 0.000, 0.000, 11:33:41.228, 1561451621228
68, 12737.39, 19880.36, 27821.80, 25516.77, 28446.86, 13395.65, 28586.32, 22946.21, 0.012, 0.040, -1.034, 11:33:41.228, 1561451621228
69, 12738.55, 19880.78, 27829.91, 25525.83, 28464.01, 13410.44, 28619.37, 22952.63, 0.000, 0.000, 0.000, 11:33:41.228, 1561451621228
70, 12703.28, 19847.81, 27800.27, 25504.66, 28467.58, 13403.89, 28707.62, 23002.69, 0.000, 0.000, 0.000, 11:33:41.228, 1561451621228
71, 12663.60, 19809.32, 27770.81, 25480.63, 28461.91, 13394.15, 28742.20, 23052.43, 0.000, 0.000, 0.000, 11:33:41.228, 1561451621228
72, 12642.39, 19779.64, 27759.46, 25468.67, 28448.99, 13382.55, 28730.80, 23071.67, 0.000, 0.000, 0.000, 11:33:41.228, 1561451621228
73, 12646.68, 19785.52, 27774.97, 25479.89, 28437.21, 13387.04, 28635.11, 23004.95, 0.000, 0.000, 0.000, 11:33:41.228, 1561451621228
74, 12651.38, 19779.37, 27777.72, 25487.27, 28457.55, 13400.47, 28677.64, 23011.61, 0.000, 0.000, 0.000, 11:33:41.287, 1561451621287
75, 12615.21, 19740.93, 27753.36, 25468.11, 28459.92, 13392.29, 28745.95, 23043.96, 0.000, 0.000, 0.000, 11:33:41.288, 1561451621288
76, 12569.79, 19702.71, 27728.75, 25451.48, 28448.38, 13376.67, 28750.22, 23067.04, 0.000, 0.000, 0.000, 11:33:41.288, 1561451621288
77, 12533.94, 19670.47, 27725.33, 25429.53, 28424.87, 13358.81, 28724.29, 23068.92, 0.000, 0.000, 0.000, 11:33:41.289, 1561451621289
78, 12540.69, 19675.23, 27731.38, 25434.36, 28412.06, 13355.97, 28620.96, 22994.58, 0.012, 0.040, -1.030, 11:33:41.289, 1561451621289
79, 12547.42, 19681.80, 27733.66, 25456.80, 28441.32, 13377.07, 28664.23, 23000.23, 0.000, 0.000, 0.000, 11:33:41.289, 1561451621289
80, 12517.29, 19648.05, 27712.36, 25452.29, 28446.44, 13376.96, 28745.30, 23038.81, 0.000, 0.000, 0.000, 11:33:41.289, 1561451621289
81, 12485.30, 19613.34, 27695.58, 25417.73, 28434.86, 13361.38, 28742.85, 23062.44, 0.000, 0.000, 0.000, 11:33:41.289, 1561451621289
82, 12473.46, 19592.98, 27681.54, 25394.69, 28418.43, 13347.77, 28715.13, 23067.87, 0.000, 0.000, 0.000, 11:33:41.289, 1561451621289
83, 12504.30, 19612.02, 27704.05, 25421.26, 28417.92, 13364.69, 28627.98, 23006.36, 0.000, 0.000, 0.000, 11:33:41.289, 1561451621289
84, 12515.50, 19621.01, 27727.14, 25444.31, 28448.05, 13384.40, 28675.41, 23016.91, 0.000, 0.000, 0.000, 11:33:41.289, 1561451621289
85, 12497.46, 19595.46, 27704.79, 25433.85, 28441.16, 13377.27, 28735.89, 23051.49, 0.000, 0.000, 0.000, 11:33:41.289, 1561451621289
86, 12460.49, 19572.53, 27673.18, 25405.42, 28433.16, 13359.10, 28727.09, 23074.24, 0.000, 0.000, 0.000, 11:33:41.289, 1561451621289
87, 12431.24, 19551.96, 27646.83, 25384.18, 28415.82, 13339.36, 28693.47, 23079.27, 0.000, 0.000, 0.000, 11:33:41.289, 1561451621289
88, 12459.82, 19568.17, 27660.71, 25398.71, 28412.15, 13346.27, 28592.51, 23018.16, 0.018, 0.038, -1.026, 11:33:41.289, 1561451621289
89, 12486.44, 19585.47, 27677.74, 25421.13, 28439.80, 13366.16, 28618.30, 23014.34, 0.000, 0.000, 0.000, 11:33:41.347, 1561451621347
90, 12461.19, 19574.94, 27682.77, 25408.32, 28431.96, 13351.55, 28696.82, 23042.03, 0.000, 0.000, 0.000, 11:33:41.348, 1561451621348
91, 12424.15, 19551.25, 27653.53, 25390.64, 28423.35, 13334.29, 28699.10, 23072.99, 0.000, 0.000, 0.000, 11:33:41.348, 1561451621348
92, 12411.36, 19519.46, 27616.05, 25368.85, 28409.20, 13322.31, 28650.42, 23075.96, 0.000, 0.000, 0.000, 11:33:41.348, 1561451621348
93, 12429.98, 19535.63, 27630.46, 25376.96, 28399.30, 13329.98, 28521.09, 22997.33, 0.000, 0.000, 0.000, 11:33:41.348, 1561451621348
94, 12452.96, 19565.91, 27657.98, 25404.81, 28425.14, 13355.77, 28559.92, 23004.50, 0.000, 0.000, 0.000, 11:33:41.348, 1561451621348
95, 12449.45, 19557.98, 27651.88, 25397.35, 28439.42, 13346.85, 28636.74, 23044.25, 0.000, 0.000, 0.000, 11:33:41.348, 1561451621348
96, 12425.83, 19519.80, 27618.91, 25372.18, 28419.97, 13323.74, 28639.60, 23061.90, 0.000, 0.000, 0.000, 11:33:41.348, 1561451621348
97, 12410.36, 19502.14, 27615.98, 25358.61, 28398.23, 13318.49, 28602.05, 23070.71, 0.000, 0.000, 0.000, 11:33:41.348, 1561451621348
98, 12440.04, 19537.30, 27631.00, 25382.19, 28396.95, 13324.19, 28501.96, 23009.38, 0.018, 0.038, -1.024, 11:33:41.348, 1561451621348
99, 12463.69, 19575.46, 27645.17, 25407.94, 28424.82, 13347.88, 28532.72, 23005.60, 0.000, 0.000, 0.000, 11:33:41.348, 1561451621348
100, 12434.86, 19562.92, 27634.51, 25397.53, 28421.11, 13336.15, 28601.04, 23036.47, 0.000, 0.000, 0.000, 11:33:41.348, 1561451621348
101, 12422.41, 19542.46, 27617.17, 25381.10, 28412.13, 13321.62, 28597.67, 23067.25, 0.000, 0.000, 0.000, 11:33:41.348, 1561451621348
102, 12423.88, 19549.82, 27609.39, 25376.83, 28394.94, 13318.40, 28558.87, 23077.37, 0.000, 0.000, 0.000, 11:33:41.348, 1561451621348
103, 12463.24, 19581.51, 27640.68, 25401.71, 28395.59, 13337.80, 28460.54, 23020.40, 0.000, 0.000, 0.000, 11:33:41.348, 1561451621348
104, 12480.12, 19596.94, 27653.00, 25418.47, 28408.60, 13354.16, 28501.74, 23011.08, 0.000, 0.000, 0.000, 11:33:41.408, 1561451621408
105, 12473.93, 19589.36, 27631.31, 25407.36, 28412.53, 13350.79, 28596.40, 23049.10, 0.000, 0.000, 0.000, 11:33:41.409, 1561451621409
106, 12460.76, 19571.32, 27605.52, 25392.56, 28408.06, 13343.16, 28624.25, 23085.48, 0.000, 0.000, 0.000, 11:33:41.409, 1561451621409
107, 12442.95, 19564.66, 27595.60, 25386.31, 28393.62, 13327.72, 28599.08, 23092.79, 0.000, 0.000, 0.000, 11:33:41.409, 1561451621409
108, 12471.42, 19605.25, 27632.03, 25414.33, 28393.93, 13339.61, 28481.82, 23023.12, 0.014, 0.040, -1.028, 11:33:41.409, 1561451621409
109, 12497.44, 19623.38, 27641.26, 25421.40, 28413.94, 13357.22, 28499.21, 23016.31, 0.000, 0.000, 0.000, 11:33:41.409, 1561451621409
110, 12488.66, 19609.10, 27630.13, 25412.37, 28425.34, 13356.24, 28570.96, 23051.82, 0.000, 0.000, 0.000, 11:33:41.409, 1561451621409
111, 12477.15, 19600.00, 27620.03, 25406.42, 28426.46, 13354.12, 28571.72, 23087.41, 0.000, 0.000, 0.000, 11:33:41.409, 1561451621409
112, 12458.39, 19594.07, 27601.03, 25387.71, 28394.61, 13330.94, 28527.20, 23089.04, 0.000, 0.000, 0.000, 11:33:41.409, 1561451621409
113, 12488.66, 19645.66, 27636.46, 25413.42, 28387.59, 13339.39, 28422.57, 23023.86, 0.000, 0.000, 0.000, 11:33:41.409, 1561451621409
114, 12520.53, 19663.63, 27651.65, 25432.22, 28412.17, 13360.98, 28460.65, 23018.03, 0.000, 0.000, 0.000, 11:33:41.409, 1561451621409
115, 12506.67, 19628.38, 27632.30, 25427.41, 28415.86, 13352.24, 28549.32, 23063.47, 0.000, 0.000, 0.000, 11:33:41.409, 1561451621409
116, 12483.78, 19606.05, 27612.58, 25409.26, 28405.87, 13336.48, 28550.62, 23086.65, 0.000, 0.000, 0.000, 11:33:41.409, 1561451621409
117, 12486.67, 19601.67, 27603.00, 25394.40, 28389.66, 13327.96, 28522.68, 23092.77, 0.016, 0.038, -1.036, 11:33:41.409, 1561451621409
118, 12522.18, 19635.60, 27625.15, 25413.35, 28382.15, 13337.44, 28413.74, 23021.98, 0.000, 0.000, 0.000, 11:33:41.409, 1561451621409
119, 12537.34, 19658.27, 27639.85, 25428.06, 28399.10, 13350.45, 28447.58, 23017.11, 0.000, 0.000, 0.000, 11:33:41.467, 1561451621467
120, 12536.47, 19650.24, 27622.53, 25419.14, 28394.61, 13339.45, 28536.05, 23057.46, 0.000, 0.000, 0.000, 11:33:41.467, 1561451621467
121, 12516.48, 19636.95, 27599.40, 25398.82, 28381.26, 13322.33, 28543.76, 23081.21, 0.000, 0.000, 0.000, 11:33:41.467, 1561451621467
122, 12507.95, 19643.23, 27604.49, 25390.89, 28380.75, 13322.11, 28528.02, 23095.34, 0.000, 0.000, 0.000, 11:33:41.467, 1561451621467
123, 12533.72, 19666.45, 27626.78, 25410.67, 28374.89, 13331.36, 28412.17, 23026.28, 0.000, 0.000, 0.000, 11:33:41.467, 1561451621467
124, 12563.18, 19695.64, 27643.50, 25431.84, 28400.44, 13355.68, 28430.41, 23025.80, 0.000, 0.000, 0.000, 11:33:41.467, 1561451621467
125, 12556.49, 19689.85, 27626.26, 25420.24, 28410.03, 13359.62, 28517.49, 23068.97, 0.000, 0.000, 0.000, 11:33:41.467, 1561451621467
126, 12535.33, 19671.19, 27607.40, 25400.41, 28398.70, 13347.23, 28522.03, 23098.27, 0.000, 0.000, 0.000, 11:33:41.467, 1561451621467
127, 12524.82, 19657.11, 27602.64, 25393.35, 28385.35, 13334.16, 28505.11, 23112.96, 0.020, 0.038, -1.034, 11:33:41.467, 1561451621467
128, 12556.76, 19691.24, 27630.98, 25424.79, 28381.44, 13340.39, 28394.00, 23049.79, 0.000, 0.000, 0.000, 11:33:41.467, 1561451621467
129, 12583.72, 19711.20, 27654.22, 25453.23, 28402.09, 13355.41, 28413.02, 23040.83, 0.000, 0.000, 0.000, 11:33:41.467, 1561451621467
130, 12579.72, 19695.71, 27637.66, 25450.79, 28404.66, 13349.67, 28504.84, 23077.82, 0.000, 0.000, 0.000, 11:33:41.467, 1561451621467
131, 12564.23, 19674.94, 27602.55, 25414.89, 28391.72, 13337.49, 28508.53, 23102.34, 0.000, 0.000, 0.000, 11:33:41.467, 1561451621467
132, 12547.51, 19663.52, 27577.40, 25385.86, 28372.65, 13324.37, 28486.38, 23113.87, 0.000, 0.000, 0.000, 11:33:41.467, 1561451621467
133, 12583.32, 19701.68, 27627.00, 25412.21, 28376.92, 13334.00, 28372.54, 23046.01, 0.000, 0.000, 0.000, 11:33:41.468, 1561451621468
134, 12610.88, 19734.44, 27654.14, 25441.27, 28403.17, 13355.59, 28394.36, 23040.13, 0.000, 0.000, 0.000, 11:33:41.527, 1561451621527
135, 12597.17, 19728.41, 27641.66, 25438.12, 28410.50, 13350.47, 28480.61, 23082.11, 0.000, 0.000, 0.000, 11:33:41.527, 1561451621527
136, 12570.08, 19702.84, 27611.96, 25414.40, 28397.62, 13338.94, 28477.46, 23104.30, 0.000, 0.000, 0.000, 11:33:41.527, 1561451621527
137, 12553.54, 19686.43, 27591.39, 25400.74, 28375.63, 13321.50, 28445.57, 23115.93, 0.012, 0.046, -1.030, 11:33:41.527, 1561451621527
138, 12591.09, 19730.31, 27635.47, 25424.57, 28371.94, 13326.18, 28324.85, 23048.89, 0.000, 0.000, 0.000, 11:33:41.527, 1561451621527
139, 12617.31, 19745.33, 27646.36, 25440.53, 28384.10, 13342.63, 28332.36, 23026.50, 0.000, 0.000, 0.000, 11:33:41.527, 1561451621527
140, 12609.11, 19718.84, 27621.30, 25441.38, 28392.68, 13352.86, 28414.95, 23064.00, 0.000, 0.000, 0.000, 11:33:41.527, 1561451621527
141, 12584.52, 19704.83, 27595.62, 25427.48, 28391.03, 13344.84, 28420.53, 23092.01, 0.000, 0.000, 0.000, 11:33:41.527, 1561451621527
142, 12568.07, 19702.19, 27597.27, 25411.61, 28379.23, 13333.53, 28404.33, 23107.37, 0.000, 0.000, 0.000, 11:33:41.527, 1561451621527
143, 12594.78, 19729.01, 27626.93, 25428.08, 28372.16, 13339.05, 28288.93, 23036.58, 0.000, 0.000, 0.000, 11:33:41.527, 1561451621527
144, 12625.94, 19753.58, 27644.32, 25453.94, 28395.68, 13359.01, 28299.90, 23027.64, 0.000, 0.000, 0.000, 11:33:41.527, 1561451621527
145, 12623.06, 19745.84, 27621.17, 25449.67, 28396.19, 13351.37, 28380.95, 23067.29, 0.000, 0.000, 0.000, 11:33:41.527, 1561451621527
146, 12608.75, 19727.96, 27596.89, 25414.27, 28379.96, 13335.07, 28381.02, 23090.38, 0.000, 0.000, 0.000, 11:33:41.527, 1561451621527
147, 12588.08, 19702.68, 27573.40, 25391.22, 28366.22, 13319.16, 28367.56, 23102.94, 0.014, 0.044, -1.034, 11:33:41.527, 1561451621527
148, 12600.59, 19736.41, 27607.46, 25412.50, 28363.87, 13328.72, 28255.55, 23032.82, 0.000, 0.000, 0.000, 11:33:41.527, 1561451621527
149, 12610.18, 19750.83, 27627.76, 25429.51, 28383.25, 13343.34, 28270.17, 23013.76, 0.000, 0.000, 0.000, 11:33:41.589, 1561451621589
150, 12599.99, 19735.03, 27615.29, 25428.48, 28390.76, 13341.00, 28356.74, 23051.11, 0.000, 0.000, 0.000, 11:33:41.589, 1561451621589
151, 12582.74, 19723.38, 27591.95, 25407.07, 28380.66, 13326.53, 28370.91, 23074.93, 0.000, 0.000, 0.000, 11:33:41.589, 1561451621589
152, 12575.00, 19704.83, 27572.11, 25393.57, 28361.37, 13314.29, 28356.16, 23093.11, 0.000, 0.000, 0.000, 11:33:41.589, 1561451621589
153, 12616.02, 19735.67, 27596.56, 25418.09, 28357.08, 13320.25, 28239.51, 23029.11, 0.000, 0.000, 0.000, 11:33:41.589, 1561451621589
154, 12645.37, 19755.95, 27626.06, 25433.07, 28382.00, 13339.63, 28252.47, 23014.23, 0.000, 0.000, 0.000, 11:33:41.589, 1561451621589
155, 12634.95, 19741.19, 27620.07, 25424.19, 28381.44, 13341.15, 28345.92, 23052.65, 0.000, 0.000, 0.000, 11:33:41.589, 1561451621589
156, 12593.55, 19725.26, 27586.32, 25405.89, 28370.76, 13326.13, 28365.44, 23078.91, 0.000, 0.000, 0.000, 11:33:41.589, 1561451621589
157, 12562.33, 19704.58, 27570.29, 25388.99, 28353.01, 13303.24, 28348.54, 23089.33, 0.014, 0.044, -1.032, 11:33:41.589, 1561451621589
158, 12600.26, 19721.68, 27595.22, 25409.04, 28355.33, 13312.72, 28236.49, 23019.14, 0.000, 0.000, 0.000, 11:33:41.590, 1561451621590
159, 12638.41, 19751.61, 27608.90, 25431.05, 28377.13, 13338.72, 28254.41, 23009.80, 0.000, 0.000, 0.000, 11:33:41.590, 1561451621590
160, 12620.49, 19741.64, 27597.72, 25416.46, 28388.39, 13332.90, 28355.04, 23051.26, 0.000, 0.000, 0.000, 11:33:41.590, 1561451621590
161, 12587.45, 19715.00, 27572.11, 25384.41, 28374.60, 13306.82, 28366.13, 23072.21, 0.000, 0.000, 0.000, 11:33:41.590, 1561451621590
162, 12580.08, 19702.97, 27563.37, 25374.82, 28363.45, 13298.42, 28350.44, 23087.03, 0.000, 0.000, 0.000, 11:33:41.590, 1561451621590
163, 12603.05, 19718.15, 27587.64, 25388.32, 28346.35, 13300.76, 28235.57, 23014.09, 0.000, 0.000, 0.000, 11:33:41.590, 1561451621590
164, 12626.23, 19749.20, 27612.32, 25407.32, 28365.19, 13318.13, 28252.31, 23003.59, 0.000, 0.000, 0.000, 11:33:41.647, 1561451621647
165, 12618.59, 19740.23, 27592.09, 25407.65, 28381.22, 13329.17, 28349.10, 23047.38, 0.000, 0.000, 0.000, 11:33:41.648, 1561451621648
166, 12604.57, 19715.60, 27568.89, 25387.83, 28369.35, 13311.42, 28361.21, 23067.07, 0.000, 0.000, 0.000, 11:33:41.648, 1561451621648
167, 12584.90, 19701.18, 27551.77, 25367.73, 28349.21, 13288.78, 28340.87, 23086.78, 0.010, 0.044, -1.034, 11:33:41.648, 1561451621648
168, 12614.68, 19731.63, 27574.97, 25388.85, 28338.79, 13302.98, 28226.88, 23022.14, 0.000, 0.000, 0.000, 11:33:41.648, 1561451621648
169, 12636.80, 19749.31, 27585.83, 25402.71, 28356.49, 13316.30, 28238.90, 22995.76, 0.000, 0.000, 0.000, 11:33:41.648, 1561451621648
170, 12617.02, 19729.17, 27571.99, 25390.44, 28363.98, 13313.55, 28331.04, 23041.29, 0.000, 0.000, 0.000, 11:33:41.648, 1561451621648
171, 12588.37, 19699.84, 27549.15, 25387.80, 28355.38, 13298.08, 28333.94, 23075.40, 0.000, 0.000, 0.000, 11:33:41.648, 1561451621648
172, 12562.95, 19683.86, 27525.59, 25358.86, 28340.36, 13288.07, 28312.91, 23093.51, 0.000, 0.000, 0.000, 11:33:41.648, 1561451621648
173, 12577.77, 19711.20, 27547.41, 25363.71, 28326.72, 13294.10, 28203.77, 23019.75, 0.000, 0.000, 0.000, 11:33:41.648, 1561451621648
174, 12618.74, 19730.20, 27569.94, 25388.83, 28345.95, 13311.63, 28214.09, 22999.34, 0.000, 0.000, 0.000, 11:33:41.648, 1561451621648
175, 12626.32, 19723.71, 27563.59, 25385.68, 28361.77, 13315.25, 28305.89, 23041.36, 0.000, 0.000, 0.000, 11:33:41.648, 1561451621648
176, 12592.15, 19710.95, 27550.38, 25372.02, 28352.96, 13306.42, 28317.78, 23065.57, 0.000, 0.000, 0.000, 11:33:41.648, 1561451621648
177, 12578.18, 19688.53, 27524.05, 25356.82, 28335.39, 13290.55, 28308.10, 23084.05, 0.008, 0.042, -1.032, 11:33:41.648, 1561451621648
178, 12608.37, 19714.75, 27537.79, 25382.19, 28331.80, 13293.57, 28199.50, 23020.31, 0.000, 0.000, 0.000, 11:33:41.648, 1561451621648
179, 12617.45, 19739.70, 27576.11, 25398.98, 28356.23, 13314.00, 28208.24, 23001.04, 0.000, 0.000, 0.000, 11:33:41.708, 1561451621708
180, 12604.44, 19734.11, 27563.19, 25388.94, 28370.98, 13321.57, 28311.08, 23047.78, 0.000, 0.000, 0.000, 11:33:41.708, 1561451621708
181, 12590.36, 19724.65, 27538.91, 25377.03, 28361.03, 13303.69, 28323.28, 23072.16, 0.000, 0.000, 0.000, 11:33:41.709, 1561451621709
182, 12586.36, 19701.23, 27520.34, 25355.33, 28344.25, 13289.09, 28311.77, 23088.19, 0.000, 0.000, 0.000, 11:33:41.709, 1561451621709
183, 12614.56, 19714.13, 27539.81, 25372.04, 28328.02, 13289.65, 28193.13, 23016.35, 0.000, 0.000, 0.000, 11:33:41.709, 1561451621709
184, 12645.79, 19737.24, 27571.99, 25400.52, 28354.15, 13313.88, 28202.85, 23003.52, 0.000, 0.000, 0.000, 11:33:41.709, 1561451621709
185, 12636.22, 19746.47, 27566.70, 25407.32, 28370.06, 13325.68, 28315.81, 23053.32, 0.000, 0.000, 0.000, 11:33:41.709, 1561451621709
186, 12602.61, 19729.15, 27534.55, 25375.76, 28355.91, 13311.31, 28330.90, 23082.27, 0.000, 0.000, 0.000, 11:33:41.709, 1561451621709
187, 12593.17, 19703.53, 27516.63, 25351.84, 28332.98, 13294.86, 28312.69, 23098.05, 0.010, 0.046, -1.034, 11:33:41.709, 1561451621709
188, 12618.70, 19723.71, 27538.18, 25361.50, 28320.29, 13293.32, 28197.04, 23030.74, 0.000, 0.000, 0.000, 11:33:41.709, 1561451621709
189, 12648.70, 19752.71, 27558.67, 25385.57, 28349.86, 13311.60, 28197.39, 23011.43, 0.000, 0.000, 0.000, 11:33:41.709, 1561451621709
190, 12635.51, 19742.20, 27549.26, 25381.14, 28365.44, 13320.03, 28293.31, 23057.90, 0.000, 0.000, 0.000, 11:33:41.709, 1561451621709
191, 12608.13, 19724.05, 27536.72, 25361.94, 28356.54, 13308.85, 28309.96, 23089.22, 0.000, 0.000, 0.000, 11:33:41.709, 1561451621709
192, 12583.27, 19695.02, 27516.92, 25350.10, 28337.85, 13288.74, 28297.24, 23099.16, 0.000, 0.000, 0.000, 11:33:41.709, 1561451621709
193, 12606.41, 19715.04, 27525.75, 25362.90, 28325.83, 13287.91, 28185.66, 23026.52, 0.000, 0.000, 0.000, 11:33:41.709, 1561451621709
194, 12634.39, 19742.65, 27546.87, 25388.29, 28349.37, 13315.89, 28199.59, 23011.97, 0.000, 0.000, 0.000, 11:33:41.768, 1561451621768
195, 12637.65, 19731.09, 27530.60, 25383.18, 28359.33, 13320.61, 28307.23, 23061.32, 0.000, 0.000, 0.000, 11:33:41.768, 1561451621768
196, 12614.90, 19720.41, 27514.86, 25358.14, 28351.71, 13311.80, 28317.45, 23087.00, 0.000, 0.000, 0.000, 11:33:41.768, 1561451621768
197, 12582.82, 19702.68, 27502.61, 25352.29, 28338.23, 13291.04, 28310.47, 23108.55, 0.012, 0.040, -1.036, 11:33:41.768, 1561451621768
198, 12605.89, 19727.36, 27524.74, 25370.79, 28330.90, 13295.13, 28202.40, 23048.18, 0.000, 0.000, 0.000, 11:33:41.768, 1561451621768
199, 12643.58, 19746.11, 27549.75, 25385.77, 28350.15, 13315.09, 28196.52, 23021.76, 0.000, 0.000, 0.000, 11:33:41.768, 1561451621768
200, 12645.83, 19735.94, 27541.97, 25374.28, 28352.85, 13313.35, 28286.53, 23054.15, 0.000, 0.000, 0.000, 11:33:41.768, 1561451621768
201, 12610.09, 19710.42, 27511.82, 25346.27, 28335.62, 13294.39, 28305.89, 23077.06, 0.000, 0.000, 0.000, 11:33:41.768, 1561451621768
202, 12564.12, 19688.29, 27473.87, 25320.77, 28318.07, 13276.51, 28306.94, 23098.43, 0.000, 0.000, 0.000, 11:33:41.768, 1561451621768
203, 12597.84, 19714.08, 27491.24, 25338.50, 28311.39, 13283.15, 28195.41, 23029.43, 0.000, 0.000, 0.000, 11:33:41.768, 1561451621768
204, 12632.45, 19735.09, 27514.06, 25368.96, 28334.32, 13303.27, 28185.08, 23003.92, 0.000, 0.000, 0.000, 11:33:41.768, 1561451621768
205, 12626.12, 19729.17, 27514.13, 25366.79, 28356.41, 13307.69, 28277.55, 23050.15, 0.000, 0.000, 0.000, 11:33:41.768, 1561451621768
206, 12604.66, 19706.35, 27496.87, 25336.84, 28337.65, 13283.19, 28281.28, 23073.77, 0.000, 0.000, 0.000, 11:33:41.769, 1561451621769
207, 12587.14, 19689.85, 27477.31, 25319.79, 28319.57, 13266.07, 28282.04, 23099.90, 0.012, 0.040, -1.036, 11:33:41.769, 1561451621769
208, 12600.62, 19704.25, 27485.69, 25334.12, 28299.83, 13269.09, 28163.71, 23026.03, 0.000, 0.000, 0.000, 11:33:41.769, 1561451621769
0, 11217.25, 18273.53, 24366.35, 23847.48, 27070.09, 12012.45, 22206.21, 21402.29, 0.004, 0.040, -1.030, 11:34:05.482, 1561451645482
1, 11255.44, 18297.52, 24399.74, 23870.39, 27053.52, 12014.58, 22080.19, 21321.84, 0.000, 0.000, 0.000, 11:34:05.482, 1561451645482
2, 11267.76, 18294.43, 24401.42, 23871.51, 27072.41, 12022.35, 22099.08, 21318.51, 0.000, 0.000, 0.000, 11:34:05.482, 1561451645482
3, 11233.05, 18272.01, 24391.07, 23848.73, 27079.99, 12020.79, 22177.06, 21348.17, 0.000, 0.000, 0.000, 11:34:05.482, 1561451645482
4, 11200.19, 18251.21, 24366.78, 23831.07, 27073.48, 12013.19, 22202.39, 21379.58, 0.000, 0.000, 0.000, 11:34:05.482, 1561451645482
5, 11196.73, 18249.48, 24351.82, 23823.00, 27055.02, 12002.42, 22174.29, 21387.20, 0.000, 0.000, 0.000, 11:34:05.482, 1561451645482
6, 11248.27, 18293.70, 24388.50, 23856.11, 27057.37, 12020.95, 22050.53, 21321.37, 0.000, 0.000, 0.000, 11:34:05.483, 1561451645483
7, 11277.28, 18318.93, 24421.25, 23881.32, 27087.97, 12041.20, 22088.98, 21315.43, 0.006, 0.044, -1.038, 11:34:05.483, 1561451645483
8, 11275.63, 18308.65, 24411.19, 23877.99, 27100.28, 12034.42, 22178.92, 21356.40, 0.000, 0.000, 0.000, 11:34:05.483, 1561451645483
9, 11243.46, 18294.61, 24382.71, 23852.55, 27092.35, 12023.09, 22195.93, 21383.67, 0.000, 0.000, 0.000, 11:34:05.483, 1561451645483
10, 11222.12, 18281.47, 24363.96, 23836.77, 27069.84, 12013.91, 22170.27, 21388.07, 0.000, 0.000, 0.000, 11:34:05.483, 1561451645483
11, 11254.80, 18304.25, 24394.20, 23860.78, 27071.83, 12025.42, 22051.60, 21314.87, 0.000, 0.000, 0.000, 11:34:05.483, 1561451645483
12, 11285.53, 18329.19, 24424.62, 23880.94, 27095.43, 12042.40, 22084.15, 21309.88, 0.000, 0.000, 0.000, 11:34:05.483, 1561451645483
13, 11282.94, 18321.97, 24406.07, 23870.19, 27100.71, 12032.39, 22175.34, 21346.70, 0.000, 0.000, 0.000, 11:34:05.483, 1561451645483
14, 11255.98, 18287.44, 24377.28, 23860.55, 27096.59, 12020.05, 22195.59, 21376.11, 0.000, 0.000, 0.000, 11:34:05.484, 1561451645484
15, 11238.75, 18273.40, 24379.63, 23840.91, 27084.70, 12016.36, 22179.26, 21378.64, 0.000, 0.000, 0.000, 11:34:05.541, 1561451645541
16, 11270.24, 18298.30, 24400.30, 23849.94, 27077.35, 12016.45, 22059.45, 21304.12, 0.012, 0.044, -1.036, 11:34:05.542, 1561451645542
17, 11280.88, 18324.65, 24413.56, 23872.65, 27102.67, 12040.08, 22088.57, 21294.26, 0.000, 0.000, 0.000, 11:34:05.542, 1561451645542
18, 11258.71, 18317.92, 24407.34, 23869.70, 27108.66, 12038.60, 22176.06, 21332.08, 0.000, 0.000, 0.000, 11:34:05.542, 1561451645542
19, 11238.59, 18293.92, 24377.84, 23862.81, 27089.60, 12025.33, 22193.63, 21367.35, 0.000, 0.000, 0.000, 11:34:05.542, 1561451645542
20, 11225.69, 18284.26, 24360.36, 23837.13, 27065.68, 12004.25, 22165.42, 21370.57, 0.000, 0.000, 0.000, 11:34:05.542, 1561451645542
21, 11269.06, 18323.94, 24394.45, 23863.48, 27060.05, 12021.95, 22038.21, 21292.49, 0.000, 0.000, 0.000, 11:34:05.542, 1561451645542
22, 11289.44, 18339.79, 24418.63, 23882.86, 27085.78, 12040.15, 22067.50, 21286.73, 0.000, 0.000, 0.000, 11:34:05.542, 1561451645542
23, 11278.15, 18317.16, 24400.93, 23865.13, 27093.15, 12034.20, 22154.06, 21322.63, 0.000, 0.000, 0.000, 11:34:05.542, 1561451645542
24, 11257.92, 18296.15, 24367.67, 23841.55, 27081.48, 12016.41, 22170.87, 21352.93, 0.000, 0.000, 0.000, 11:34:05.542, 1561451645542
25, 11228.64, 18287.82, 24357.12, 23833.93, 27060.61, 12002.64, 22157.48, 21357.40, 0.000, 0.000, 0.000, 11:34:05.542, 1561451645542
26, 11262.33, 18311.29, 24398.09, 23873.14, 27056.50, 12013.01, 22035.42, 21286.55, 0.014, 0.040, -1.036, 11:34:05.542, 1561451645542
27, 11289.51, 18329.75, 24412.33, 23892.29, 27079.23, 12034.71, 22062.98, 21282.41, 0.000, 0.000, 0.000, 11:34:05.542, 1561451645542
28, 11278.80, 18319.40, 24395.21, 23867.04, 27084.44, 12027.81, 22141.93, 21316.21, 0.000, 0.000, 0.000, 11:34:05.542, 1561451645542
29, 11250.48, 18301.34, 24381.75, 23841.42, 27075.79, 12015.45, 22162.20, 21342.27, 0.000, 0.000, 0.000, 11:34:05.542, 1561451645542
30, 11236.09, 18295.55, 24356.49, 23842.74, 27062.80, 12006.35, 22148.01, 21354.16, 0.000, 0.000, 0.000, 11:34:05.600, 1561451645600
31, 11262.51, 18319.62, 24374.73, 23861.34, 27055.53, 12011.04, 22040.09, 21274.81, 0.000, 0.000, 0.000, 11:34:05.601, 1561451645601
32, 11278.62, 18333.06, 24398.92, 23879.73, 27074.35, 12029.89, 22056.54, 21266.81, 0.000, 0.000, 0.000, 11:34:05.601, 1561451645601
33, 11265.99, 18316.94, 24396.35, 23866.43, 27095.43, 12032.03, 22147.11, 21311.22, 0.000, 0.000, 0.000, 11:34:05.601, 1561451645601
34, 11254.17, 18300.54, 24378.46, 23847.77, 27090.96, 12017.59, 22161.20, 21337.62, 0.000, 0.000, 0.000, 11:34:05.601, 1561451645601
35, 11240.92, 18304.54, 24367.07, 23840.24, 27075.27, 12005.70, 22139.74, 21345.67, 0.000, 0.000, 0.000, 11:34:05.601, 1561451645601
36, 11267.38, 18327.98, 24386.11, 23860.73, 27061.95, 12011.42, 22016.91, 21267.19, 0.010, 0.040, -1.036, 11:34:05.601, 1561451645601
37, 11286.63, 18336.59, 24403.43, 23870.52, 27085.84, 12028.55, 22042.13, 21266.23, 0.000, 0.000, 0.000, 11:34:05.601, 1561451645601
38, 11271.05, 18314.01, 24390.13, 23853.69, 27092.73, 12023.18, 22136.25, 21305.86, 0.000, 0.000, 0.000, 11:34:05.601, 1561451645601
39, 11251.93, 18287.77, 24375.76, 23828.21, 27079.45, 12004.81, 22150.29, 21331.21, 0.000, 0.000, 0.000, 11:34:05.601, 1561451645601
40, 11248.81, 18276.89, 24345.16, 23825.19, 27060.50, 11994.55, 22134.51, 21342.83, 0.000, 0.000, 0.000, 11:34:05.601, 1561451645601
41, 11266.58, 18297.27, 24376.68, 23847.05, 27048.65, 11995.93, 22015.75, 21261.92, 0.000, 0.000, 0.000, 11:34:05.601, 1561451645601
42, 11282.00, 18321.61, 24410.65, 23861.51, 27072.50, 12010.73, 22042.04, 21255.03, 0.000, 0.000, 0.000, 11:34:05.601, 1561451645601
43, 11268.54, 18312.89, 24409.94, 23857.00, 27085.13, 12015.20, 22141.28, 21306.89, 0.000, 0.000, 0.000, 11:34:05.601, 1561451645601
44, 11246.48, 18302.17, 24375.74, 23852.30, 27080.05, 12011.78, 22162.45, 21339.30, 0.000, 0.000, 0.000, 11:34:05.601, 1561451645601
45, 11239.55, 18300.91, 24356.11, 23851.95, 27069.62, 12004.81, 22146.82, 21347.12, 0.000, 0.000, 0.000, 11:34:05.660, 1561451645660
46, 11277.10, 18333.44, 24391.54, 23865.58, 27061.77, 12015.00, 22032.58, 21269.67, 0.014, 0.038, -1.034, 11:34:05.660, 1561451645660
47, 11291.27, 18346.45, 24409.33, 23876.07, 27080.70, 12027.83, 22058.64, 21259.17, 0.000, 0.000, 0.000, 11:34:05.660, 1561451645660
48, 11269.70, 18335.98, 24407.54, 23865.47, 27087.70, 12020.12, 22148.86, 21291.00, 0.000, 0.000, 0.000, 11:34:05.660, 1561451645660
49, 11254.35, 18306.88, 24378.31, 23850.83, 27080.01, 12002.95, 22170.20, 21324.14, 0.000, 0.000, 0.000, 11:34:05.660, 1561451645660
50, 11242.48, 18284.44, 24360.16, 23840.75, 27064.63, 12001.41, 22140.65, 21335.37, 0.000, 0.000, 0.000, 11:34:05.660, 1561451645660
51, 11270.11, 18318.10, 24383.70, 23858.07, 27055.89, 12009.12, 22019.13, 21260.40, 0.000, 0.000, 0.000, 11:34:05.660, 1561451645660
52, 11303.17, 18346.51, 24389.31, 23871.86, 27076.43, 12029.35, 22046.71, 21255.86, 0.000, 0.000, 0.000, 11:34:05.660, 1561451645660
53, 11290.02, 18340.41, 24387.72, 23869.11, 27089.67, 12031.90, 22144.65, 21297.32, 0.000, 0.000, 0.000, 11:34:05.661, 1561451645661
54, 11248.98, 18305.94, 24367.74, 23853.20, 27075.18, 12019.56, 22168.71, 21330.22, 0.000, 0.000, 0.000, 11:34:05.661, 1561451645661
55, 11236.33, 18288.38, 24353.92, 23842.25, 27059.15, 12007.04, 22161.33, 21342.65, 0.000, 0.000, 0.000, 11:34:05.661, 1561451645661
56, 11269.12, 18318.35, 24387.38, 23862.32, 27059.60, 12009.23, 22047.18, 21265.61, 0.012, 0.038, -1.030, 11:34:05.661, 1561451645661
