%OpenBCI Raw EEG Data
%Number of channels = 8
%Sample Rate = 250.0 Hz
%First Column = SampleIndex
%Last Column = Timestamp 
%Other Columns = EEG data in microvolts followed by Accel Data (in G) interleaved with Aux Data
0, -17.01, -25.41, -23.38, -21.68, -20.30, -14.04, -26.78, -23.78, 0.008, 0.048, -1.034, 19:07:23.300, 1560874043300
1, -16.96, -25.24, -23.34, -21.50, -20.54, -14.17, -26.82, -23.63, 0.000, 0.000, 0.000, 19:07:23.301, 1560874043301
2, -17.12, -25.19, -23.25, -21.39, -20.61, -14.01, -26.62, -23.76, 0.000, 0.000, 0.000, 19:07:23.302, 1560874043302
3, -16.96, -25.59, -23.27, -21.61, -20.74, -14.08, -26.84, -23.58, 0.000, 0.000, 0.000, 19:07:23.302, 1560874043302
4, -16.99, -25.59, -23.34, -21.82, -20.56, -13.88, -27.14, -23.74, 0.000, 0.000, 0.000, 19:07:23.302, 1560874043302
5, -17.01, -25.57, -23.31, -21.57, -20.32, -13.95, -27.14, -23.74, 0.000, 0.000, 0.000, 19:07:23.302, 1560874043302
6, -16.92, -25.44, -23.11, -21.48, -20.43, -14.22, -26.98, -23.69, 0.000, 0.000, 0.000, 19:07:23.302, 1560874043302
7, -16.94, -25.15, -23.38, -21.59, -20.56, -14.17, -26.87, -23.74, 0.008, 0.050, -1.038, 19:07:23.302, 1560874043302
8, -17.12, -25.32, -23.18, -21.68, -20.34, -13.97, -26.80, -23.67, 0.000, 0.000, 0.000, 19:07:23.303, 1560874043303
9, -17.14, -25.53, -23.29, -21.64, -20.45, -14.22, -26.69, -23.76, 0.000, 0.000, 0.000, 19:07:23.303, 1560874043303
10, -17.14, -25.44, -23.60, -21.70, -20.65, -14.10, -26.80, -23.78, 0.000, 0.000, 0.000, 19:07:23.303, 1560874043303
11, -17.12, -25.57, -23.51, -21.84, -20.74, -14.28, -26.69, -23.63, 0.000, 0.000, 0.000, 19:07:23.304, 1560874043304
12, -17.10, -25.46, -23.31, -21.73, -20.59, -14.33, -26.82, -23.56, 0.000, 0.000, 0.000, 19:07:23.304, 1560874043304
13, -16.85, -25.48, -23.38, -21.55, -20.43, -14.31, -27.07, -23.63, 0.000, 0.000, 0.000, 19:07:23.304, 1560874043304
14, -16.79, -25.53, -23.47, -21.70, -20.47, -14.13, -26.91, -23.69, 0.000, 0.000, 0.000, 19:07:23.304, 1560874043304
15, -16.99, -25.46, -23.47, -21.86, -20.63, -14.01, -26.62, -23.65, 0.000, 0.000, 0.000, 19:07:23.304, 1560874043304
16, -17.19, -25.46, -23.27, -21.46, -20.70, -14.06, -26.69, -23.76, 0.000, 0.000, 0.000, 19:07:23.304, 1560874043304
17, -17.28, -25.41, -23.20, -21.44, -20.70, -14.06, -26.84, -23.74, 0.004, 0.058, -1.034, 19:07:23.305, 1560874043305
18, -17.34, -25.59, -23.38, -21.48, -20.54, -14.22, -27.05, -23.56, 0.000, 0.000, 0.000, 19:07:23.305, 1560874043305
19, -17.26, -25.53, -23.38, -21.50, -20.61, -14.39, -26.91, -23.67, 0.000, 0.000, 0.000, 19:07:23.305, 1560874043305
20, -16.96, -25.39, -23.34, -21.73, -20.68, -14.39, -26.98, -23.60, 0.000, 0.000, 0.000, 19:07:23.305, 1560874043305
21, -16.85, -25.59, -23.45, -21.59, -20.38, -14.22, -27.07, -23.42, 0.000, 0.000, 0.000, 19:07:23.305, 1560874043305
22, -17.03, -25.39, -23.49, -21.52, -20.47, -14.08, -26.80, -23.78, 0.000, 0.000, 0.000, 19:07:23.305, 1560874043305
23, -17.30, -25.39, -23.18, -21.39, -20.41, -13.99, -26.93, -23.60, 0.000, 0.000, 0.000, 19:07:23.305, 1560874043305
24, -17.34, -25.75, -23.42, -21.70, -20.59, -14.17, -26.98, -23.78, 0.000, 0.000, 0.000, 19:07:23.306, 1560874043306
25, -16.96, -25.73, -23.27, -21.70, -20.76, -14.17, -26.91, -23.65, 0.000, 0.000, 0.000, 19:07:23.306, 1560874043306
26, -16.96, -25.59, -23.20, -21.64, -20.65, -14.08, -26.98, -23.80, 0.000, 0.000, 0.000, 19:07:23.306, 1560874043306
27, -17.08, -25.57, -23.18, -21.55, -20.63, -13.93, -26.73, -23.83, 0.010, 0.052, -1.038, 19:07:23.306, 1560874043306
28, -17.17, -25.53, -23.07, -21.61, -20.41, -13.86, -26.93, -23.78, 0.000, 0.000, 0.000, 19:07:23.306, 1560874043306
29, -16.99, -25.53, -23.27, -21.57, -20.50, -14.13, -27.09, -23.63, 0.000, 0.000, 0.000, 19:07:23.306, 1560874043306
30, -16.85, -25.59, -23.18, -21.50, -20.50, -14.31, -26.98, -23.67, 0.000, 0.000, 0.000, 19:07:23.306, 1560874043306
31, -17.03, -25.68, -23.09, -21.48, -20.50, -14.17, -26.71, -23.78, 0.000, 0.000, 0.000, 19:07:23.306, 1560874043306
32, -17.14, -25.68, -23.29, -21.55, -20.56, -13.97, -26.87, -23.67, 0.000, 0.000, 0.000, 19:07:23.306, 1560874043306
33, -17.19, -25.62, -23.42, -21.61, -20.43, -14.06, -26.91, -23.69, 0.000, 0.000, 0.000, 19:07:23.306, 1560874043306
34, -16.99, -25.19, -23.36, -21.46, -20.61, -14.04, -26.91, -23.94, 0.000, 0.000, 0.000, 19:07:23.306, 1560874043306
35, -17.01, -25.41, -23.49, -21.50, -20.65, -14.06, -27.00, -23.78, 0.000, 0.000, 0.000, 19:07:23.306, 1560874043306
36, -17.03, -25.35, -23.40, -21.77, -20.59, -14.17, -26.91, -23.58, 0.000, 0.000, 0.000, 19:07:23.306, 1560874043306
37, -17.26, -25.30, -23.38, -21.57, -20.54, -14.31, -26.73, -23.72, 0.010, 0.052, -1.032, 19:07:23.306, 1560874043306
38, -16.99, -25.46, -23.27, -21.84, -20.65, -14.31, -26.53, -23.89, 0.000, 0.000, 0.000, 19:07:23.306, 1560874043306
39, -16.94, -25.41, -23.27, -21.93, -20.59, -14.24, -26.84, -23.78, 0.000, 0.000, 0.000, 19:07:23.307, 1560874043307
40, -16.92, -25.35, -23.40, -21.84, -20.52, -14.28, -26.96, -23.87, 0.000, 0.000, 0.000, 19:07:23.307, 1560874043307
41, -16.83, -25.32, -23.34, -21.68, -20.47, -14.17, -26.84, -23.51, 0.000, 0.000, 0.000, 19:07:23.307, 1560874043307
42, -17.03, -25.53, -23.11, -21.61, -20.45, -14.01, -26.80, -23.69, 0.000, 0.000, 0.000, 19:07:23.307, 1560874043307
43, -17.10, -25.62, -23.27, -21.61, -20.41, -14.24, -26.84, -23.74, 0.000, 0.000, 0.000, 19:07:23.307, 1560874043307
44, -17.01, -25.41, -23.16, -21.55, -20.61, -14.24, -27.02, -23.78, 0.000, 0.000, 0.000, 19:07:23.307, 1560874043307
45, -17.14, -25.50, -23.29, -21.50, -20.54, -14.15, -26.91, -23.87, 0.000, 0.000, 0.000, 19:07:23.307, 1560874043307
46, -17.19, -25.62, -23.20, -21.52, -20.63, -14.13, -26.80, -23.85, 0.008, 0.052, -1.032, 19:07:23.307, 1560874043307
47, -17.03, -25.35, -23.29, -21.75, -20.65, -14.06, -26.84, -23.78, 0.000, 0.000, 0.000, 19:07:23.307, 1560874043307
48, -17.12, -25.35, -23.18, -21.79, -20.70, -13.93, -26.87, -23.74, 0.000, 0.000, 0.000, 19:07:23.307, 1560874043307
49, -17.12, -25.64, -23.04, -21.55, -20.32, -14.24, -26.91, -23.83, 0.000, 0.000, 0.000, 19:07:23.307, 1560874043307
50, -17.23, -25.50, -23.38, -21.88, -20.16, -14.13, -26.78, -23.92, 0.000, 0.000, 0.000, 19:07:23.307, 1560874043307
51, -17.08, -25.57, -23.47, -21.93, -20.45, -14.17, -26.96, -23.83, 0.000, 0.000, 0.000, 19:07:23.307, 1560874043307
52, -17.17, -25.57, -23.34, -21.86, -20.72, -14.22, -26.96, -23.85, 0.000, 0.000, 0.000, 19:07:23.307, 1560874043307
53, -17.19, -25.46, -23.40, -21.84, -20.54, -13.97, -26.64, -23.72, 0.000, 0.000, 0.000, 19:07:23.308, 1560874043308
54, -17.12, -25.57, -23.38, -21.82, -20.54, -14.01, -26.84, -23.45, 0.000, 0.000, 0.000, 19:07:23.308, 1560874043308
55, -17.19, -25.46, -23.18, -21.64, -20.65, -13.99, -27.02, -23.49, 0.000, 0.000, 0.000, 19:07:23.308, 1560874043308
56, -17.12, -25.66, -23.07, -21.52, -20.50, -13.97, -26.91, -23.92, 0.012, 0.050, -1.040, 19:07:23.308, 1560874043308
57, -16.90, -25.70, -23.20, -21.68, -20.70, -14.04, -26.87, -23.78, 0.000, 0.000, 0.000, 19:07:23.308, 1560874043308
58, -16.85, -25.55, -23.11, -21.59, -20.65, -14.17, -26.69, -23.60, 0.000, 0.000, 0.000, 19:07:23.308, 1560874043308
59, -17.26, -25.64, -23.27, -21.75, -20.50, -14.10, -26.69, -23.56, 0.000, 0.000, 0.000, 19:07:23.308, 1560874043308
60, -17.28, -25.46, -23.45, -21.84, -20.41, -14.13, -26.96, -23.67, 0.000, 0.000, 0.000, 19:07:23.308, 1560874043308
61, -17.14, -25.37, -23.40, -21.82, -20.61, -14.10, -26.76, -23.45, 0.000, 0.000, 0.000, 19:07:23.308, 1560874043308
62, -16.85, -25.48, -23.40, -21.70, -20.54, -14.04, -26.82, -23.40, 0.000, 0.000, 0.000, 19:07:23.308, 1560874043308
63, -16.96, -25.57, -23.22, -21.70, -20.30, -14.13, -26.84, -23.74, 0.000, 0.000, 0.000, 19:07:23.308, 1560874043308
64, -17.03, -25.53, -23.29, -21.79, -20.36, -14.06, -26.69, -23.69, 0.000, 0.000, 0.000, 19:07:23.309, 1560874043309
65, -16.83, -25.37, -23.22, -21.61, -20.21, -14.06, -26.73, -23.72, 0.000, 0.000, 0.000, 19:07:23.309, 1560874043309
66, -16.96, -25.30, -23.38, -21.50, -20.72, -13.97, -26.87, -23.72, 0.014, 0.050, -1.038, 19:07:23.309, 1560874043309
67, -17.08, -25.62, -23.38, -21.66, -20.63, -13.68, -26.84, -23.67, 0.000, 0.000, 0.000, 19:07:23.309, 1560874043309
68, -17.08, -25.57, -23.27, -21.66, -20.70, -13.88, -26.73, -23.63, 0.000, 0.000, 0.000, 19:07:23.309, 1560874043309
69, -17.14, -25.75, -23.29, -21.70, -20.50, -14.06, -26.93, -23.74, 0.000, 0.000, 0.000, 19:07:23.309, 1560874043309
70, -17.03, -25.73, -23.38, -21.66, -20.41, -13.86, -26.98, -23.67, 0.000, 0.000, 0.000, 19:07:23.309, 1560874043309
71, -16.92, -25.46, -23.45, -21.66, -20.70, -13.90, -26.89, -23.89, 0.000, 0.000, 0.000, 19:07:23.309, 1560874043309
72, -16.85, -25.55, -23.29, -21.95, -20.52, -14.13, -26.96, -23.85, 0.000, 0.000, 0.000, 19:07:23.309, 1560874043309
73, -17.12, -25.44, -23.29, -21.77, -20.56, -14.04, -26.84, -24.03, 0.000, 0.000, 0.000, 19:07:23.309, 1560874043309
74, -17.05, -25.32, -23.42, -21.55, -20.38, -14.01, -26.80, -23.94, 0.000, 0.000, 0.000, 19:07:23.309, 1560874043309
75, -17.08, -25.44, -23.22, -21.61, -20.61, -13.79, -26.69, -23.89, 0.000, 0.000, 0.000, 19:07:23.309, 1560874043309
76, -17.03, -25.50, -23.11, -21.50, -20.45, -14.17, -26.71, -23.74, 0.016, 0.052, -1.034, 19:07:23.310, 1560874043310
77, -17.14, -25.50, -23.25, -21.50, -20.50, -14.22, -26.98, -23.47, 0.000, 0.000, 0.000, 19:07:23.310, 1560874043310
78, -17.17, -25.37, -23.45, -21.57, -20.50, -14.26, -26.96, -23.63, 0.000, 0.000, 0.000, 19:07:23.310, 1560874043310
79, -17.23, -25.57, -23.34, -21.70, -20.61, -14.37, -26.73, -23.83, 0.000, 0.000, 0.000, 19:07:23.310, 1560874043310
80, -17.10, -25.77, -23.18, -21.61, -20.88, -14.10, -26.87, -23.83, 0.000, 0.000, 0.000, 19:07:23.310, 1560874043310
81, -16.83, -25.32, -23.27, -21.55, -20.70, -13.86, -26.80, -23.56, 0.000, 0.000, 0.000, 19:07:23.310, 1560874043310
82, -17.10, -25.46, -23.25, -21.41, -20.65, -14.01, -26.71, -23.74, 0.000, 0.000, 0.000, 19:07:23.310, 1560874043310
83, -17.34, -25.48, -22.96, -21.37, -20.36, -14.15, -26.64, -23.87, 0.000, 0.000, 0.000, 19:07:23.310, 1560874043310
84, -17.08, -25.50, -23.22, -21.37, -20.23, -14.28, -26.71, -23.92, 0.000, 0.000, 0.000, 19:07:23.311, 1560874043311
85, -17.23, -25.32, -23.13, -21.70, -20.43, -14.01, -27.25, -23.78, 0.000, 0.000, 0.000, 19:07:23.311, 1560874043311
86, -17.26, -25.41, -23.31, -21.93, -20.50, -14.13, -27.16, -23.76, 0.006, 0.046, -1.032, 19:07:23.311, 1560874043311
87, -17.28, -25.50, -23.29, -21.86, -20.94, -14.26, -26.76, -23.72, 0.000, 0.000, 0.000, 19:07:23.311, 1560874043311
88, -17.14, -25.62, -23.31, -21.82, -20.72, -13.99, -26.84, -23.94, 0.000, 0.000, 0.000, 19:07:23.311, 1560874043311
89, -17.23, -25.46, -23.38, -21.73, -20.65, -14.35, -26.96, -23.80, 0.000, 0.000, 0.000, 19:07:23.311, 1560874043311
90, -16.90, -25.50, -23.27, -21.44, -20.56, -14.19, -26.78, -23.87, 0.000, 0.000, 0.000, 19:07:23.311, 1560874043311
91, -17.17, -25.39, -23.02, -21.48, -20.59, -14.13, -26.84, -23.67, 0.000, 0.000, 0.000, 19:07:23.311, 1560874043311
92, -17.19, -25.39, -23.18, -21.52, -20.61, -13.99, -26.96, -23.67, 0.000, 0.000, 0.000, 19:07:23.339, 1560874043339
93, -17.08, -25.57, -23.25, -21.39, -20.47, -13.86, -26.91, -23.69, 0.000, 0.000, 0.000, 19:07:23.339, 1560874043339
94, -16.96, -25.46, -23.36, -21.57, -20.54, -14.04, -26.78, -23.74, 0.000, 0.000, 0.000, 19:07:23.339, 1560874043339
95, -17.14, -25.39, -23.20, -21.79, -20.36, -14.17, -26.73, -23.74, 0.000, 0.000, 0.000, 19:07:23.339, 1560874043339
96, -17.05, -25.41, -23.29, -21.64, -20.45, -14.17, -26.84, -23.63, 0.012, 0.050, -1.036, 19:07:23.339, 1560874043339
97, -16.88, -25.41, -23.45, -21.59, -20.61, -14.26, -26.76, -23.85, 0.000, 0.000, 0.000, 19:07:23.339, 1560874043339
98, -17.01, -25.53, -23.29, -21.70, -20.63, -14.24, -27.05, -24.05, 0.000, 0.000, 0.000, 19:07:23.339, 1560874043339
99, -16.92, -25.59, -23.49, -21.64, -20.70, -14.17, -26.98, -23.78, 0.000, 0.000, 0.000, 19:07:23.340, 1560874043340
100, -16.92, -25.48, -23.38, -21.59, -20.61, -14.19, -26.76, -23.80, 0.000, 0.000, 0.000, 19:07:23.340, 1560874043340
101, -17.23, -25.53, -23.20, -21.64, -20.59, -14.22, -26.87, -23.74, 0.000, 0.000, 0.000, 19:07:23.340, 1560874043340
102, -17.26, -25.57, -23.38, -21.66, -20.41, -14.13, -26.84, -23.85, 0.000, 0.000, 0.000, 19:07:23.340, 1560874043340
103, -17.23, -25.39, -23.29, -21.79, -20.38, -14.13, -26.84, -23.72, 0.000, 0.000, 0.000, 19:07:23.340, 1560874043340
104, -17.37, -25.64, -23.38, -21.55, -20.63, -14.17, -26.76, -23.63, 0.000, 0.000, 0.000, 19:07:23.340, 1560874043340
105, -17.19, -25.62, -23.22, -21.57, -20.45, -14.10, -26.71, -23.74, 0.000, 0.000, 0.000, 19:07:23.340, 1560874043340
106, -17.14, -25.59, -23.18, -21.73, -20.50, -14.19, -26.80, -23.83, 0.010, 0.050, -1.042, 19:07:23.340, 1560874043340
107, -16.81, -25.39, -23.29, -21.73, -20.38, -13.84, -26.78, -23.63, 0.000, 0.000, 0.000, 19:07:23.341, 1560874043341
108, -16.79, -25.35, -23.22, -21.50, -20.45, -14.04, -26.55, -23.67, 0.000, 0.000, 0.000, 19:07:23.341, 1560874043341
109, -17.01, -25.53, -23.13, -21.50, -20.85, -13.99, -26.67, -23.89, 0.000, 0.000, 0.000, 19:07:23.341, 1560874043341
110, -17.12, -25.75, -23.27, -21.50, -20.65, -14.17, -26.87, -23.87, 0.000, 0.000, 0.000, 19:07:23.342, 1560874043342
111, -16.96, -25.62, -23.18, -21.50, -20.61, -14.37, -26.87, -23.67, 0.000, 0.000, 0.000, 19:07:23.342, 1560874043342
112, -16.99, -25.59, -23.34, -21.50, -20.74, -14.10, -26.69, -23.56, 0.000, 0.000, 0.000, 19:07:23.342, 1560874043342
113, -16.96, -25.35, -23.31, -21.59, -20.61, -13.88, -26.91, -23.60, 0.000, 0.000, 0.000, 19:07:23.342, 1560874043342
114, -16.88, -25.39, -23.02, -21.59, -20.52, -13.99, -27.02, -23.67, 0.000, 0.000, 0.000, 19:07:23.342, 1560874043342
115, -17.08, -25.64, -22.91, -21.73, -20.54, -14.17, -26.87, -23.67, 0.000, 0.000, 0.000, 19:07:23.342, 1560874043342
116, -17.10, -25.68, -23.11, -21.77, -20.27, -14.17, -26.76, -23.58, 0.012, 0.052, -1.030, 19:07:23.342, 1560874043342
117, -17.08, -25.41, -23.22, -21.48, -20.32, -14.10, -26.64, -23.78, 0.000, 0.000, 0.000, 19:07:23.342, 1560874043342
118, -17.05, -25.53, -23.18, -21.44, -20.25, -14.06, -26.78, -23.98, 0.000, 0.000, 0.000, 19:07:23.342, 1560874043342
119, -17.03, -25.41, -23.00, -21.39, -20.43, -14.19, -26.60, -23.96, 0.000, 0.000, 0.000, 19:07:23.342, 1560874043342
0, 8211.67, 13421.95, 5466.52, 17969.33, 6494.95, 11012.86, 21293.77, 21232.73, 0.006, 0.034, -0.518, 19:07:43.424, 1560874063424
1, 8197.95, 13427.88, 5443.50, 17973.06, 6492.27, 11011.94, 21280.02, 21168.62, 0.000, 0.000, 0.000, 19:07:43.911, 1560874063911
2, 8228.03, 13453.80, 5475.84, 17990.90, 6481.54, 10960.96, 21298.15, 21159.05, 0.000, 0.000, 0.000, 19:07:43.911, 1560874063911
3, 8254.59, 13473.56, 5518.04, 18006.65, 6480.28, 10929.96, 21328.79, 21202.62, 0.000, 0.000, 0.000, 19:07:43.912, 1560874063912
4, 8249.72, 13463.37, 5518.02, 18005.63, 6497.27, 10971.71, 21334.52, 21254.92, 0.000, 0.000, 0.000, 19:07:43.912, 1560874063912
5, 8222.83, 13432.55, 5479.62, 17992.24, 6505.10, 11028.48, 21308.88, 21254.29, 0.000, 0.000, 0.000, 19:07:43.912, 1560874063912
6, 8202.82, 13428.10, 5454.03, 17987.32, 6496.74, 11025.22, 21283.98, 21182.35, 0.000, 0.000, 0.000, 19:07:43.912, 1560874063912
7, 8227.43, 13454.43, 5480.49, 18003.08, 6487.35, 10974.48, 21301.39, 21168.76, 0.010, 0.042, -0.768, 19:07:43.912, 1560874063912
8, 8258.72, 13483.56, 5515.02, 18012.89, 6483.32, 10937.02, 21326.45, 21203.94, 0.000, 0.000, 0.000, 19:07:43.912, 1560874063912
9, 8258.50, 13472.04, 5518.06, 18009.78, 6499.15, 10975.00, 21328.53, 21253.38, 0.000, 0.000, 0.000, 19:07:43.912, 1560874063912
10, 8222.18, 13436.01, 5478.19, 17984.50, 6503.49, 11027.14, 21302.87, 21253.85, 0.000, 0.000, 0.000, 19:07:43.912, 1560874063912
11, 8203.18, 13430.56, 5447.25, 17971.38, 6488.73, 11020.82, 21280.98, 21179.75, 0.000, 0.000, 0.000, 19:07:43.912, 1560874063912
12, 8231.63, 13454.43, 5474.88, 17991.75, 6474.38, 10971.58, 21300.50, 21165.63, 0.000, 0.000, 0.000, 19:07:43.912, 1560874063912
13, 8267.15, 13485.19, 5514.60, 18001.71, 6477.92, 10934.12, 21326.11, 21205.77, 0.000, 0.000, 0.000, 19:07:43.912, 1560874063912
14, 8263.91, 13474.50, 5515.47, 17995.23, 6499.82, 10971.98, 21336.73, 21262.28, 0.000, 0.000, 0.000, 19:07:43.913, 1560874063913
15, 8224.35, 13432.48, 5473.67, 17973.06, 6500.27, 11019.90, 21305.88, 21254.74, 0.000, 0.000, 0.000, 19:07:43.913, 1560874063913
16, 8199.47, 13430.80, 5449.27, 17981.49, 6490.07, 11022.96, 21282.37, 21183.89, 0.000, 0.000, 0.000, 19:07:43.913, 1560874063913
17, 8214.15, 13451.03, 5477.25, 17999.66, 6479.97, 10970.33, 21298.73, 21169.31, 0.006, 0.050, -0.904, 19:07:43.914, 1560874063914
18, 8245.76, 13472.56, 5510.06, 18007.82, 6474.79, 10931.41, 21322.89, 21204.50, 0.000, 0.000, 0.000, 19:07:43.914, 1560874063914
19, 8254.25, 13461.20, 5510.04, 18004.22, 6492.47, 10973.54, 21330.36, 21259.55, 0.000, 0.000, 0.000, 19:07:43.914, 1560874063914
20, 8221.82, 13424.08, 5473.41, 17983.68, 6499.17, 11024.68, 21304.61, 21260.29, 0.000, 0.000, 0.000, 19:07:43.915, 1560874063915
21, 8196.05, 13416.54, 5443.39, 17974.85, 6486.90, 11019.10, 21279.82, 21183.06, 0.000, 0.000, 0.000, 19:07:43.915, 1560874063915
22, 8217.89, 13440.37, 5468.31, 17983.95, 6473.09, 10963.84, 21295.60, 21163.57, 0.000, 0.000, 0.000, 19:07:43.916, 1560874063916
23, 8252.26, 13470.73, 5511.14, 17997.31, 6476.19, 10929.18, 21325.37, 21203.74, 0.000, 0.000, 0.000, 19:07:43.916, 1560874063916
24, 8253.02, 13458.79, 5513.93, 17993.56, 6492.13, 10965.85, 21329.38, 21255.26, 0.000, 0.000, 0.000, 19:07:43.916, 1560874063916
25, 8218.98, 13422.22, 5475.93, 17972.77, 6497.74, 11015.81, 21303.47, 21252.55, 0.000, 0.000, 0.000, 19:07:43.916, 1560874063916
26, 8195.31, 13417.24, 5447.52, 17970.53, 6487.06, 11014.85, 21279.11, 21175.48, 0.004, 0.050, -0.968, 19:07:43.916, 1560874063916
27, 8222.92, 13447.64, 5472.27, 17986.76, 6473.62, 10963.15, 21293.88, 21157.85, 0.000, 0.000, 0.000, 19:07:43.916, 1560874063916
28, 8259.19, 13478.41, 5510.67, 18002.07, 6469.02, 10927.12, 21322.78, 21197.66, 0.000, 0.000, 0.000, 19:07:43.916, 1560874063916
29, 8254.77, 13467.86, 5510.13, 17996.91, 6482.10, 10962.77, 21326.13, 21253.78, 0.000, 0.000, 0.000, 19:07:43.916, 1560874063916
30, 8216.50, 13426.94, 5466.86, 17973.91, 6486.34, 11014.36, 21297.52, 21250.94, 0.000, 0.000, 0.000, 19:07:43.916, 1560874063916
31, 8197.90, 13420.03, 5437.82, 17971.45, 6476.89, 11014.58, 21278.81, 21177.92, 0.000, 0.000, 0.000, 19:07:43.916, 1560874063916
32, 8216.75, 13447.66, 5461.65, 17986.38, 6464.15, 10961.63, 21294.84, 21157.33, 0.000, 0.000, 0.000, 19:07:43.916, 1560874063916
33, 8258.79, 13483.87, 5508.97, 18007.46, 6470.25, 10932.04, 21330.60, 21203.29, 0.000, 0.000, 0.000, 19:07:43.917, 1560874063917
34, 8257.43, 13469.63, 5512.21, 18000.48, 6485.25, 10965.52, 21335.23, 21255.01, 0.000, 0.000, 0.000, 19:07:43.917, 1560874063917
35, 8221.62, 13427.39, 5470.72, 17976.14, 6488.85, 11013.93, 21303.69, 21249.85, 0.000, 0.000, 0.000, 19:07:43.917, 1560874063917
36, 8201.66, 13418.87, 5442.60, 17971.43, 6479.55, 11013.42, 21279.46, 21175.93, 0.004, 0.048, -0.998, 19:07:43.917, 1560874063917
37, 8229.17, 13453.27, 5474.01, 17991.28, 6472.01, 10969.10, 21303.98, 21166.61, 0.000, 0.000, 0.000, 19:07:43.917, 1560874063917
38, 8257.72, 13481.97, 5511.78, 18006.65, 6471.32, 10933.38, 21332.75, 21204.50, 0.000, 0.000, 0.000, 19:07:43.917, 1560874063917
39, 8253.58, 13470.35, 5514.15, 18002.47, 6488.67, 10967.96, 21335.12, 21253.92, 0.000, 0.000, 0.000, 19:07:43.917, 1560874063917
40, 8233.40, 13435.57, 5480.25, 17983.36, 6500.11, 11021.69, 21313.35, 21258.25, 0.000, 0.000, 0.000, 19:07:43.917, 1560874063917
41, 8218.27, 13428.82, 5453.74, 17983.77, 6495.24, 11023.08, 21291.58, 21188.54, 0.000, 0.000, 0.000, 19:07:43.917, 1560874063917
42, 8222.78, 13449.65, 5472.62, 17994.29, 6475.50, 10966.64, 21299.40, 21164.62, 0.000, 0.000, 0.000, 19:07:43.917, 1560874063917
43, 8254.45, 13477.05, 5506.80, 18004.24, 6469.89, 10925.87, 21327.90, 21203.87, 0.000, 0.000, 0.000, 19:07:43.917, 1560874063917
44, 8253.25, 13465.34, 5507.85, 17995.57, 6484.96, 10955.33, 21327.99, 21249.29, 0.000, 0.000, 0.000, 19:07:43.917, 1560874063917
45, 8222.27, 13425.44, 5471.08, 17973.22, 6492.09, 11006.69, 21299.51, 21246.67, 0.000, 0.000, 0.000, 19:07:43.917, 1560874063917
46, 8204.45, 13420.12, 5445.33, 17973.46, 6483.03, 11013.78, 21280.51, 21178.97, 0.006, 0.052, -1.014, 19:07:43.917, 1560874063917
47, 8222.74, 13445.22, 5468.89, 17987.95, 6468.80, 10962.46, 21288.87, 21155.32, 0.000, 0.000, 0.000, 19:07:43.917, 1560874063917
48, 8253.81, 13473.05, 5510.33, 18003.79, 6469.47, 10928.26, 21322.31, 21198.73, 0.000, 0.000, 0.000, 19:07:43.917, 1560874063917
49, 8253.85, 13464.13, 5510.20, 18003.50, 6486.43, 10964.56, 21331.70, 21252.35, 0.000, 0.000, 0.000, 19:07:43.917, 1560874063917
50, 8222.00, 13423.88, 5469.90, 17978.49, 6493.92, 11013.40, 21303.42, 21251.28, 0.000, 0.000, 0.000, 19:07:43.918, 1560874063918
51, 8197.66, 13416.81, 5442.78, 17973.51, 6488.82, 11014.72, 21282.32, 21180.91, 0.000, 0.000, 0.000, 19:07:43.918, 1560874063918
52, 8229.22, 13449.51, 5470.68, 17989.04, 6480.53, 10964.78, 21300.38, 21165.07, 0.000, 0.000, 0.000, 19:07:43.918, 1560874063918
53, 8254.25, 13474.99, 5506.04, 17995.59, 6471.95, 10922.47, 21326.29, 21200.63, 0.000, 0.000, 0.000, 19:07:43.918, 1560874063918
54, 8252.33, 13463.48, 5512.14, 17993.40, 6488.58, 10958.75, 21334.38, 21252.87, 0.000, 0.000, 0.000, 19:07:43.918, 1560874063918
55, 8219.12, 13424.23, 5474.63, 17975.96, 6494.88, 11012.19, 21305.77, 21253.74, 0.000, 0.000, 0.000, 19:07:43.918, 1560874063918
56, 8202.55, 13416.59, 5442.58, 17971.07, 6483.21, 11014.25, 21280.51, 21180.13, 0.008, 0.054, -1.026, 19:07:43.918, 1560874063918
57, 8223.85, 13445.98, 5468.67, 17989.42, 6473.56, 10965.79, 21299.36, 21163.28, 0.000, 0.000, 0.000, 19:07:43.918, 1560874063918
58, 8256.31, 13480.05, 5509.03, 18009.27, 6473.02, 10932.04, 21332.48, 21205.46, 0.000, 0.000, 0.000, 19:07:43.918, 1560874063918
59, 8259.08, 13468.02, 5511.36, 18005.02, 6481.94, 10967.08, 21335.61, 21255.28, 0.000, 0.000, 0.000, 19:07:43.918, 1560874063918
60, 8224.68, 13422.42, 5472.18, 17977.69, 6487.10, 11015.97, 21305.53, 21255.41, 0.000, 0.000, 0.000, 19:07:43.918, 1560874063918
61, 8202.40, 13414.44, 5442.05, 17969.62, 6477.45, 11014.18, 21280.22, 21182.95, 0.000, 0.000, 0.000, 19:07:43.918, 1560874063918
62, 8225.46, 13445.16, 5468.04, 17983.27, 6466.96, 10963.26, 21293.17, 21160.28, 0.000, 0.000, 0.000, 19:07:43.918, 1560874063918
63, 8255.42, 13471.49, 5503.71, 17991.57, 6463.65, 10922.67, 21325.22, 21199.58, 0.000, 0.000, 0.000, 19:07:43.918, 1560874063918
64, 8262.48, 13459.79, 5502.60, 17983.68, 6479.73, 10953.32, 21329.60, 21250.67, 0.000, 0.000, 0.000, 19:07:43.918, 1560874063918
65, 8215.52, 13417.33, 5462.81, 17962.80, 6485.16, 11006.20, 21304.16, 21255.64, 0.000, 0.000, 0.000, 19:07:43.918, 1560874063918
66, 8189.70, 13411.83, 5431.85, 17963.34, 6477.54, 11010.09, 21287.49, 21189.36, 0.004, 0.056, -1.034, 19:07:43.918, 1560874063918
67, 8215.74, 13441.94, 5462.10, 17979.72, 6466.00, 10960.09, 21301.73, 21165.78, 0.000, 0.000, 0.000, 19:07:43.918, 1560874063918
68, 8251.55, 13469.70, 5502.26, 17989.22, 6460.86, 10917.49, 21323.32, 21199.13, 0.000, 0.000, 0.000, 19:07:43.918, 1560874063918
69, 8252.40, 13459.01, 5500.61, 17985.62, 6472.13, 10947.64, 21323.38, 21246.00, 0.000, 0.000, 0.000, 19:07:43.919, 1560874063919
70, 8218.98, 13419.05, 5463.86, 17967.52, 6482.30, 11001.15, 21297.39, 21248.30, 0.000, 0.000, 0.000, 19:07:43.919, 1560874063919
71, 8198.26, 13410.31, 5435.81, 17964.95, 6477.40, 11007.07, 21273.65, 21176.40, 0.000, 0.000, 0.000, 19:07:43.919, 1560874063919
72, 8226.09, 13440.91, 5461.81, 17981.29, 6470.07, 10962.03, 21293.84, 21158.23, 0.000, 0.000, 0.000, 19:07:43.919, 1560874063919
73, 8252.84, 13471.08, 5500.23, 17992.62, 6466.29, 10924.06, 21327.95, 21198.55, 0.000, 0.000, 0.000, 19:07:43.919, 1560874063919
74, 8247.91, 13459.50, 5506.11, 17987.81, 6480.84, 10954.21, 21333.53, 21250.52, 0.000, 0.000, 0.000, 19:07:43.919, 1560874063919
75, 8216.12, 13417.46, 5464.46, 17964.41, 6487.48, 11001.84, 21303.56, 21251.17, 0.000, 0.000, 0.000, 19:07:43.919, 1560874063919
76, 8194.04, 13408.25, 5434.29, 17958.53, 6479.66, 11000.43, 21275.84, 21171.82, 0.008, 0.052, -1.032, 19:07:43.919, 1560874063919
77, 8219.74, 13441.65, 5459.95, 17979.47, 6468.39, 10954.34, 21294.42, 21155.50, 0.000, 0.000, 0.000, 19:07:43.919, 1560874063919
78, 8260.82, 13472.65, 5502.51, 17997.36, 6466.52, 10919.25, 21329.69, 21203.58, 0.000, 0.000, 0.000, 19:07:43.919, 1560874063919
79, 8260.78, 13460.24, 5508.48, 17998.67, 6484.49, 10954.21, 21338.49, 21255.01, 0.000, 0.000, 0.000, 19:07:43.919, 1560874063919
80, 8227.32, 13427.36, 5473.29, 17983.52, 6494.28, 11012.55, 21314.62, 21262.95, 0.000, 0.000, 0.000, 19:07:43.919, 1560874063919
81, 8201.59, 13418.60, 5442.38, 17978.27, 6483.50, 11016.97, 21284.96, 21188.40, 0.000, 0.000, 0.000, 19:07:43.920, 1560874063920
82, 8226.25, 13447.61, 5470.16, 17995.10, 6474.83, 10971.02, 21302.96, 21167.28, 0.000, 0.000, 0.000, 19:07:43.920, 1560874063920
83, 8253.34, 13472.36, 5506.13, 18003.79, 6472.15, 10926.07, 21327.50, 21197.57, 0.000, 0.000, 0.000, 19:07:43.920, 1560874063920
84, 8256.09, 13466.01, 5510.93, 18002.97, 6489.40, 10959.26, 21338.72, 21256.75, 0.000, 0.000, 0.000, 19:07:43.920, 1560874063920
85, 8224.28, 13423.14, 5475.82, 17979.61, 6495.82, 11008.79, 21309.06, 21257.31, 0.000, 0.000, 0.000, 19:07:43.920, 1560874063920
86, 8206.06, 13417.01, 5454.50, 17979.65, 6491.01, 11014.16, 21288.72, 21188.02, 0.010, 0.054, -1.032, 19:07:43.920, 1560874063920
87, 8223.81, 13443.41, 5475.24, 17992.57, 6476.37, 10961.59, 21304.07, 21164.02, 0.000, 0.000, 0.000, 19:07:43.920, 1560874063920
88, 8251.26, 13469.18, 5510.96, 18003.01, 6469.49, 10918.58, 21334.36, 21203.89, 0.000, 0.000, 0.000, 19:07:43.920, 1560874063920
89, 8252.26, 13462.21, 5515.05, 18000.89, 6483.30, 10952.94, 21344.71, 21259.21, 0.000, 0.000, 0.000, 19:07:43.920, 1560874063920
90, 8217.57, 13420.86, 5473.07, 17976.37, 6491.35, 11005.69, 21316.59, 21264.71, 0.000, 0.000, 0.000, 19:07:43.920, 1560874063920
91, 8201.50, 13412.63, 5440.19, 17972.54, 6483.08, 11011.23, 21289.79, 21188.40, 0.000, 0.000, 0.000, 19:07:43.920, 1560874063920
92, 8221.89, 13439.83, 5464.62, 17989.29, 6472.53, 10963.40, 21301.30, 21164.38, 0.000, 0.000, 0.000, 19:07:43.920, 1560874063920
93, 8261.23, 13471.11, 5505.32, 18005.09, 6471.81, 10926.05, 21331.48, 21204.52, 0.000, 0.000, 0.000, 19:07:43.920, 1560874063920
94, 8259.21, 13471.49, 5518.11, 18012.58, 6495.71, 10966.86, 21347.79, 21265.38, 0.000, 0.000, 0.000, 19:07:43.920, 1560874063920
95, 8223.25, 13428.26, 5479.73, 17991.61, 6503.24, 11018.40, 21317.93, 21268.38, 0.000, 0.000, 0.000, 19:07:43.920, 1560874063920
96, 8195.22, 13414.82, 5443.77, 17981.20, 6489.72, 11015.14, 21290.15, 21189.88, 0.008, 0.052, -1.036, 19:07:43.920, 1560874063920
97, 8219.79, 13441.62, 5467.55, 17991.75, 6478.34, 10962.79, 21301.05, 21165.02, 0.000, 0.000, 0.000, 19:07:43.920, 1560874063920
98, 8257.27, 13476.04, 5508.23, 18007.30, 6476.53, 10926.78, 21336.08, 21209.68, 0.000, 0.000, 0.000, 19:07:43.920, 1560874063920
99, 8253.43, 13469.70, 5508.86, 18010.57, 6490.23, 10962.75, 21347.08, 21264.09, 0.000, 0.000, 0.000, 19:07:43.920, 1560874063920
100, 8213.10, 13421.22, 5464.42, 17984.86, 6491.80, 11012.23, 21318.54, 21265.27, 0.000, 0.000, 0.000, 19:07:43.920, 1560874063920
101, 8187.80, 13405.06, 5434.31, 17976.08, 6483.19, 11015.43, 21292.81, 21193.45, 0.000, 0.000, 0.000, 19:07:43.920, 1560874063920
102, 8209.88, 13431.21, 5462.34, 17991.01, 6473.69, 10967.40, 21302.84, 21167.88, 0.000, 0.000, 0.000, 19:07:43.920, 1560874063920
103, 8245.96, 13461.65, 5507.56, 18004.73, 6476.82, 10930.36, 21336.19, 21207.58, 0.000, 0.000, 0.000, 19:07:43.920, 1560874063920
104, 8250.70, 13456.40, 5513.42, 18002.90, 6491.51, 10961.63, 21343.59, 21260.13, 0.000, 0.000, 0.000, 19:07:43.920, 1560874063920
105, 8220.81, 13417.55, 5471.62, 17982.87, 6496.20, 11012.82, 21314.36, 21262.92, 0.000, 0.000, 0.000, 19:07:43.920, 1560874063920
106, 8195.94, 13404.70, 5436.68, 17975.59, 6486.03, 11013.69, 21285.14, 21186.79, 0.014, 0.054, -1.034, 19:07:43.920, 1560874063920
107, 8220.55, 13435.68, 5460.75, 17991.23, 6475.32, 10966.21, 21302.53, 21166.77, 0.000, 0.000, 0.000, 19:07:43.921, 1560874063921
108, 8254.37, 13467.78, 5497.55, 18003.46, 6468.80, 10924.75, 21330.00, 21204.41, 0.000, 0.000, 0.000, 19:07:43.921, 1560874063921
109, 8257.67, 13461.09, 5506.78, 18003.86, 6485.90, 10961.63, 21339.08, 21256.82, 0.000, 0.000, 0.000, 19:07:43.921, 1560874063921
110, 8217.08, 13413.75, 5462.12, 17976.03, 6486.57, 11007.85, 21304.21, 21254.54, 0.000, 0.000, 0.000, 19:07:43.921, 1560874063921
111, 8192.81, 13408.07, 5430.31, 17974.18, 6479.12, 11013.58, 21280.49, 21184.22, 0.000, 0.000, 0.000, 19:07:43.921, 1560874063921
112, 8207.74, 13433.53, 5453.58, 17988.75, 6466.92, 10966.82, 21296.45, 21162.32, 0.000, 0.000, 0.000, 19:07:43.921, 1560874063921
113, 8245.38, 13465.94, 5498.51, 18002.81, 6467.52, 10927.72, 21330.45, 21204.29, 0.000, 0.000, 0.000, 19:07:43.921, 1560874063921
114, 8246.85, 13455.21, 5502.91, 17998.81, 6478.94, 10953.99, 21338.47, 21255.88, 0.000, 0.000, 0.000, 19:07:43.921, 1560874063921
115, 8215.36, 13410.98, 5464.76, 17976.59, 6487.24, 11003.70, 21309.35, 21260.55, 0.000, 0.000, 0.000, 19:07:43.921, 1560874063921
116, 8194.40, 13400.70, 5436.97, 17970.64, 6484.98, 11009.62, 21284.80, 21190.39, 0.006, 0.050, -1.036, 19:07:43.921, 1560874063921
117, 8212.34, 13428.93, 5458.39, 17981.29, 6470.32, 10960.09, 21295.96, 21162.27, 0.000, 0.000, 0.000, 19:07:43.922, 1560874063922
118, 8248.60, 13461.67, 5500.63, 17996.69, 6467.30, 10921.29, 21328.17, 21201.25, 0.000, 0.000, 0.000, 19:07:43.922, 1560874063922
119, 8256.11, 13457.34, 5507.16, 17997.42, 6482.41, 10954.66, 21336.82, 21254.00, 0.000, 0.000, 0.000, 19:07:43.922, 1560874063922
120, 8234.96, 13427.45, 5476.45, 17985.76, 6496.33, 11014.42, 21315.43, 21263.53, 0.000, 0.000, 0.000, 19:07:43.922, 1560874063922
121, 8218.40, 13418.13, 5443.57, 17982.18, 6489.47, 11022.45, 21288.87, 21192.49, 0.000, 0.000, 0.000, 19:07:44.388, 1560874064388
122, 8223.14, 13438.92, 5461.22, 17990.99, 6473.42, 10971.51, 21298.66, 21163.66, 0.000, 0.000, 0.000, 19:07:44.388, 1560874064388
123, 8254.83, 13470.32, 5501.35, 18006.92, 6471.12, 10930.70, 21334.07, 21205.52, 0.000, 0.000, 0.000, 19:07:44.388, 1560874064388
124, 8253.85, 13462.14, 5505.03, 18004.40, 6485.78, 10958.41, 21341.24, 21254.77, 0.000, 0.000, 0.000, 19:07:44.388, 1560874064388
125, 8217.53, 13420.23, 5466.16, 17980.32, 6491.44, 11010.16, 21311.22, 21258.10, 0.000, 0.000, 0.000, 19:07:44.388, 1560874064388
126, 8197.81, 13415.32, 5437.87, 17976.19, 6488.11, 11020.19, 21288.98, 21192.72, 0.006, 0.058, -1.038, 19:07:44.388, 1560874064388
127, 8212.43, 13437.20, 5458.03, 17985.29, 6475.17, 10968.92, 21299.78, 21165.04, 0.000, 0.000, 0.000, 19:07:44.388, 1560874064388
128, 8249.29, 13464.49, 5499.60, 18002.29, 6476.19, 10928.37, 21332.86, 21203.09, 0.000, 0.000, 0.000, 19:07:44.388, 1560874064388
129, 8250.68, 13456.73, 5504.68, 18003.19, 6490.97, 10957.79, 21339.28, 21255.30, 0.000, 0.000, 0.000, 19:07:44.389, 1560874064389
130, 8215.90, 13414.89, 5466.92, 17982.40, 6496.29, 11011.00, 21312.57, 21261.45, 0.000, 0.000, 0.000, 19:07:44.389, 1560874064389
131, 8197.46, 13412.63, 5441.15, 17983.54, 6491.59, 11022.11, 21292.49, 21195.09, 0.000, 0.000, 0.000, 19:07:44.389, 1560874064389
132, 8213.53, 13433.35, 5457.54, 17991.23, 6473.27, 10967.53, 21298.87, 21163.93, 0.000, 0.000, 0.000, 19:07:44.389, 1560874064389
133, 8244.42, 13461.76, 5495.04, 18000.87, 6467.01, 10925.46, 21325.04, 21197.43, 0.000, 0.000, 0.000, 19:07:44.389, 1560874064389
134, 8253.00, 13463.33, 5509.95, 18005.09, 6492.09, 10961.03, 21341.18, 21256.53, 0.000, 0.000, 0.000, 19:07:44.389, 1560874064389
135, 8215.45, 13418.06, 5470.54, 17978.96, 6496.69, 11008.73, 21310.85, 21259.03, 0.006, 0.048, -1.028, 19:07:44.389, 1560874064389
136, 8205.46, 13409.71, 5439.43, 17977.60, 6494.14, 11017.93, 21290.46, 21197.16, 0.000, 0.000, 0.000, 19:07:44.389, 1560874064389
137, 8222.27, 13436.68, 5461.51, 17992.86, 6483.53, 10970.44, 21305.32, 21170.61, 0.000, 0.000, 0.000, 19:07:44.389, 1560874064389
138, 8251.28, 13470.46, 5502.35, 18008.04, 6481.47, 10928.48, 21336.24, 21205.93, 0.000, 0.000, 0.000, 19:07:44.389, 1560874064389
139, 8253.65, 13460.73, 5510.11, 18003.26, 6495.13, 10957.47, 21343.99, 21256.13, 0.000, 0.000, 0.000, 19:07:44.389, 1560874064389
140, 8217.80, 13417.21, 5474.34, 17980.53, 6500.98, 11009.04, 21314.13, 21258.65, 0.000, 0.000, 0.000, 19:07:44.389, 1560874064389
141, 8195.09, 13405.73, 5439.32, 17973.82, 6489.14, 11010.87, 21281.32, 21180.45, 0.000, 0.000, 0.000, 19:07:44.389, 1560874064389
142, 8224.77, 13431.41, 5461.69, 17986.34, 6477.47, 10959.89, 21290.42, 21153.60, 0.000, 0.000, 0.000, 19:07:44.389, 1560874064389
143, 8246.70, 13455.46, 5497.95, 17995.52, 6470.23, 10912.39, 21315.47, 21184.31, 0.000, 0.000, 0.000, 19:07:44.389, 1560874064389
144, 8243.84, 13455.91, 5504.68, 17995.50, 6484.06, 10940.93, 21324.75, 21237.22, 0.000, 0.000, 0.000, 19:07:44.389, 1560874064389
145, 8224.01, 13419.27, 5469.81, 17976.86, 6492.71, 10998.98, 21303.69, 21251.05, 0.004, 0.048, -1.034, 19:07:44.389, 1560874064389
146, 8198.69, 13409.30, 5439.94, 17974.83, 6486.88, 11012.68, 21280.89, 21185.12, 0.000, 0.000, 0.000, 19:07:44.389, 1560874064389
147, 8209.10, 13434.16, 5461.47, 17987.63, 6471.84, 10965.90, 21295.82, 21160.98, 0.000, 0.000, 0.000, 19:07:44.389, 1560874064389
148, 8244.46, 13469.92, 5505.82, 18004.91, 6467.50, 10928.17, 21330.18, 21202.26, 0.000, 0.000, 0.000, 19:07:44.390, 1560874064390
149, 8254.28, 13468.49, 5516.39, 18007.32, 6486.81, 10959.42, 21344.02, 21258.79, 0.000, 0.000, 0.000, 19:07:44.390, 1560874064390
150, 8220.10, 13423.52, 5477.38, 17984.35, 6493.54, 11006.92, 21317.15, 21263.75, 0.000, 0.000, 0.000, 19:07:44.390, 1560874064390
151, 8197.52, 13403.04, 5437.17, 17972.90, 6480.58, 11006.33, 21284.87, 21183.51, 0.000, 0.000, 0.000, 19:07:44.390, 1560874064390
152, 8214.24, 13430.18, 5456.89, 17983.32, 6467.63, 10961.45, 21297.55, 21158.43, 0.000, 0.000, 0.000, 19:07:44.390, 1560874064390
153, 8250.48, 13465.67, 5504.09, 18005.27, 6471.37, 10928.35, 21333.91, 21206.75, 0.000, 0.000, 0.000, 19:07:44.390, 1560874064390
154, 8256.85, 13461.99, 5512.23, 18007.77, 6489.07, 10958.14, 21338.90, 21256.82, 0.000, 0.000, 0.000, 19:07:44.390, 1560874064390
155, 8224.84, 13422.20, 5476.09, 17983.16, 6495.89, 11010.07, 21314.27, 21265.02, 0.002, 0.052, -1.032, 19:07:44.390, 1560874064390
156, 8204.03, 13414.18, 5448.26, 17983.19, 6491.64, 11023.75, 21292.56, 21197.61, 0.000, 0.000, 0.000, 19:07:44.390, 1560874064390
157, 8218.16, 13439.34, 5467.75, 17997.13, 6477.20, 10973.66, 21300.29, 21167.79, 0.000, 0.000, 0.000, 19:07:44.390, 1560874064390
158, 8254.99, 13466.41, 5504.90, 18008.22, 6468.44, 10926.36, 21325.22, 21199.67, 0.000, 0.000, 0.000, 19:07:44.390, 1560874064390
159, 8265.88, 13467.91, 5519.76, 18013.81, 6488.85, 10959.57, 21340.15, 21254.18, 0.000, 0.000, 0.000, 19:07:44.390, 1560874064390
160, 8238.92, 13429.40, 5486.30, 17995.57, 6500.00, 11015.52, 21316.66, 21265.11, 0.000, 0.000, 0.000, 19:07:44.390, 1560874064390
161, 8218.47, 13416.83, 5453.27, 17990.31, 6496.82, 11024.73, 21289.16, 21195.02, 0.000, 0.000, 0.000, 19:07:44.390, 1560874064390
162, 8223.70, 13438.63, 5472.40, 18002.21, 6484.08, 10976.83, 21300.85, 21166.56, 0.000, 0.000, 0.000, 19:07:44.390, 1560874064390
163, 8251.57, 13471.69, 5511.72, 18015.88, 6481.98, 10934.65, 21337.31, 21206.13, 0.000, 0.000, 0.000, 19:07:44.390, 1560874064390
164, 8249.54, 13463.57, 5513.39, 18009.22, 6495.57, 10958.19, 21339.86, 21255.79, 0.000, 0.000, 0.000, 19:07:44.390, 1560874064390
165, 8216.68, 13423.94, 5474.95, 17987.32, 6503.42, 11013.17, 21316.79, 21269.27, 0.006, 0.050, -1.036, 19:07:44.391, 1560874064391
166, 8191.51, 13409.01, 5442.05, 17979.94, 6493.56, 11020.95, 21294.08, 21195.76, 0.000, 0.000, 0.000, 19:07:44.391, 1560874064391
167, 8212.81, 13439.01, 5461.96, 17998.27, 6479.68, 10975.89, 21304.23, 21165.56, 0.000, 0.000, 0.000, 19:07:44.391, 1560874064391
168, 8247.26, 13471.04, 5504.97, 18015.13, 6474.92, 10932.77, 21332.17, 21203.09, 0.000, 0.000, 0.000, 19:07:44.391, 1560874064391
169, 8254.70, 13469.54, 5513.75, 18016.24, 6490.12, 10959.80, 21345.22, 21255.08, 0.000, 0.000, 0.000, 19:07:44.391, 1560874064391
170, 8223.45, 13431.34, 5475.22, 17995.46, 6496.94, 11015.81, 21320.19, 21268.33, 0.000, 0.000, 0.000, 19:07:44.391, 1560874064391
171, 8200.34, 13419.41, 5442.63, 17987.21, 6488.26, 11022.11, 21288.74, 21193.88, 0.000, 0.000, 0.000, 19:07:44.391, 1560874064391
172, 8219.38, 13438.90, 5461.04, 17995.14, 6472.75, 10971.46, 21292.47, 21158.88, 0.000, 0.000, 0.000, 19:07:44.392, 1560874064392
173, 8251.12, 13464.06, 5502.46, 18005.58, 6472.33, 10929.91, 21331.01, 21203.13, 0.000, 0.000, 0.000, 19:07:44.392, 1560874064392
174, 8255.13, 13458.41, 5510.53, 18003.39, 6487.91, 10955.33, 21344.33, 21255.70, 0.000, 0.000, 0.000, 19:07:44.392, 1560874064392
175, 8234.47, 13419.05, 5472.02, 17985.08, 6494.57, 11008.52, 21316.14, 21264.96, 0.006, 0.050, -1.038, 19:07:44.392, 1560874064392
176, 8198.35, 13409.62, 5441.38, 17981.38, 6489.90, 11019.05, 21288.92, 21194.30, 0.000, 0.000, 0.000, 19:07:44.392, 1560874064392
177, 8211.45, 13435.90, 5464.91, 17997.00, 6481.45, 10974.06, 21303.87, 21167.53, 0.000, 0.000, 0.000, 19:07:44.393, 1560874064393
178, 8244.37, 13468.78, 5502.17, 18008.82, 6473.69, 10927.83, 21335.05, 21206.51, 0.000, 0.000, 0.000, 19:07:44.393, 1560874064393
179, 8252.96, 13470.59, 5510.89, 18011.62, 6489.74, 10957.32, 21346.23, 21261.02, 0.000, 0.000, 0.000, 19:07:44.393, 1560874064393
180, 8218.29, 13423.94, 5475.69, 17988.10, 6498.05, 11014.45, 21314.27, 21267.01, 0.000, 0.000, 0.000, 19:07:44.393, 1560874064393
181, 8196.56, 13411.43, 5445.20, 17987.37, 6491.42, 11028.42, 21285.92, 21196.05, 0.000, 0.000, 0.000, 19:07:44.393, 1560874064393
182, 8213.80, 13434.94, 5463.91, 17998.83, 6477.98, 10979.09, 21294.26, 21161.65, 0.000, 0.000, 0.000, 19:07:44.393, 1560874064393
183, 8251.84, 13470.21, 5510.29, 18014.30, 6476.17, 10932.22, 21327.21, 21200.41, 0.000, 0.000, 0.000, 19:07:44.393, 1560874064393
184, 8262.46, 13467.31, 5520.34, 18011.82, 6491.01, 10954.39, 21336.51, 21255.68, 0.000, 0.000, 0.000, 19:07:44.393, 1560874064393
185, 8243.46, 13431.74, 5488.54, 17992.84, 6505.34, 11013.67, 21320.12, 21271.46, 0.008, 0.054, -1.030, 19:07:44.393, 1560874064393
186, 8208.37, 13411.85, 5452.42, 17978.83, 6499.31, 11021.78, 21288.31, 21198.19, 0.000, 0.000, 0.000, 19:07:44.393, 1560874064393
187, 8207.85, 13427.34, 5463.01, 17986.09, 6479.64, 10970.15, 21297.03, 21166.61, 0.000, 0.000, 0.000, 19:07:44.393, 1560874064393
188, 8243.79, 13462.43, 5504.18, 18005.04, 6474.83, 10926.31, 21331.03, 21202.26, 0.000, 0.000, 0.000, 19:07:44.393, 1560874064393
189, 8272.38, 13467.19, 5519.54, 18011.33, 6495.75, 10957.58, 21342.61, 21254.59, 0.000, 0.000, 0.000, 19:07:44.394, 1560874064394
190, 8240.22, 13420.17, 5479.40, 17985.69, 6498.26, 11008.35, 21308.34, 21255.28, 0.000, 0.000, 0.000, 19:07:44.394, 1560874064394
191, 8186.97, 13407.83, 5448.77, 17980.41, 6493.83, 11021.06, 21284.02, 21191.51, 0.000, 0.000, 0.000, 19:07:44.394, 1560874064394
192, 8207.09, 13438.56, 5472.47, 17994.45, 6486.99, 10977.48, 21296.54, 21165.89, 0.000, 0.000, 0.000, 19:07:44.394, 1560874064394
193, 8252.35, 13469.34, 5511.29, 18013.76, 6481.40, 10934.65, 21328.55, 21203.96, 0.000, 0.000, 0.000, 19:07:44.394, 1560874064394
194, 8255.26, 13460.82, 5515.74, 18013.90, 6491.84, 10956.18, 21337.94, 21253.63, 0.000, 0.000, 0.000, 19:07:44.394, 1560874064394
195, 8216.19, 13421.95, 5480.04, 17996.42, 6500.94, 11013.04, 21314.31, 21267.97, 0.006, 0.052, -1.030, 19:07:44.394, 1560874064394
196, 8213.35, 13410.40, 5443.72, 17991.12, 6493.87, 11025.96, 21287.71, 21196.87, 0.000, 0.000, 0.000, 19:07:44.394, 1560874064394
197, 8228.62, 13434.60, 5464.46, 18002.63, 6480.20, 10975.62, 21297.10, 21162.16, 0.000, 0.000, 0.000, 19:07:44.394, 1560874064394
198, 8243.73, 13466.95, 5508.19, 18018.30, 6477.60, 10929.69, 21327.12, 21197.43, 0.000, 0.000, 0.000, 19:07:44.394, 1560874064394
199, 8253.74, 13462.68, 5515.67, 18017.43, 6493.61, 10955.77, 21333.94, 21249.33, 0.000, 0.000, 0.000, 19:07:44.394, 1560874064394
200, 8220.81, 13418.87, 5477.38, 17993.53, 6500.76, 11008.48, 21308.92, 21259.26, 0.000, 0.000, 0.000, 19:07:44.394, 1560874064394
201, 8194.57, 13398.78, 5444.04, 17986.96, 6493.16, 11018.49, 21283.53, 21189.56, 0.000, 0.000, 0.000, 19:07:44.395, 1560874064395
202, 8206.29, 13425.33, 5462.12, 18000.11, 6476.60, 10973.57, 21291.91, 21157.69, 0.000, 0.000, 0.000, 19:07:44.395, 1560874064395
203, 8239.59, 13460.33, 5505.30, 18015.44, 6469.00, 10929.80, 21322.76, 21194.01, 0.000, 0.000, 0.000, 19:07:44.395, 1560874064395
204, 8247.77, 13453.60, 5513.75, 18014.52, 6485.60, 10953.61, 21333.87, 21241.60, 0.000, 0.000, 0.000, 19:07:44.395, 1560874064395
205, 8216.79, 13416.61, 5477.56, 17991.05, 6498.14, 11008.17, 21312.81, 21259.91, 0.010, 0.050, -1.028, 19:07:44.395, 1560874064395
206, 8183.98, 13402.89, 5442.72, 17979.38, 6495.15, 11017.13, 21285.41, 21193.25, 0.000, 0.000, 0.000, 19:07:44.395, 1560874064395
207, 8204.27, 13422.71, 5456.66, 17988.53, 6479.66, 10968.98, 21294.71, 21160.04, 0.000, 0.000, 0.000, 19:07:44.395, 1560874064395
208, 8237.98, 13452.33, 5495.49, 18000.96, 6472.24, 10921.24, 21325.98, 21193.37, 0.000, 0.000, 0.000, 19:07:44.395, 1560874064395
209, 8253.05, 13450.72, 5508.92, 18002.72, 6489.18, 10944.78, 21338.76, 21249.11, 0.000, 0.000, 0.000, 19:07:44.395, 1560874064395
210, 8213.93, 13411.34, 5476.67, 17985.08, 6498.34, 11000.14, 21311.76, 21261.83, 0.000, 0.000, 0.000, 19:07:44.395, 1560874064395
211, 8186.01, 13397.72, 5442.74, 17980.39, 6491.51, 11012.59, 21284.58, 21192.74, 0.000, 0.000, 0.000, 19:07:44.395, 1560874064395
212, 8199.54, 13420.50, 5458.65, 17992.68, 6476.82, 10968.20, 21293.03, 21159.59, 0.000, 0.000, 0.000, 19:07:44.396, 1560874064396
213, 8230.56, 13450.14, 5494.33, 18003.90, 6467.28, 10922.60, 21321.06, 21192.76, 0.000, 0.000, 0.000, 19:07:44.396, 1560874064396
214, 8238.43, 13445.13, 5499.38, 18001.47, 6479.46, 10945.67, 21329.53, 21242.65, 0.000, 0.000, 0.000, 19:07:44.396, 1560874064396
215, 8211.61, 13410.67, 5463.57, 17982.58, 6491.08, 11003.18, 21310.55, 21259.93, 0.008, 0.052, -1.030, 19:07:44.396, 1560874064396
216, 8185.12, 13389.66, 5426.60, 17970.58, 6484.75, 11013.69, 21282.06, 21188.29, 0.000, 0.000, 0.000, 19:07:44.396, 1560874064396
217, 8201.61, 13411.94, 5447.21, 17976.86, 6473.27, 10966.35, 21289.41, 21155.01, 0.000, 0.000, 0.000, 19:07:44.397, 1560874064397
218, 8231.07, 13445.65, 5487.87, 17990.63, 6467.05, 10918.63, 21321.55, 21192.54, 0.000, 0.000, 0.000, 19:07:44.397, 1560874064397
219, 8239.95, 13437.89, 5497.57, 17990.38, 6477.94, 10939.32, 21334.27, 21244.01, 0.000, 0.000, 0.000, 19:07:44.398, 1560874064398
220, 8215.99, 13398.48, 5466.48, 17969.86, 6490.25, 10994.58, 21313.51, 21260.84, 0.000, 0.000, 0.000, 19:07:44.398, 1560874064398
221, 8191.00, 13382.59, 5428.70, 17960.43, 6479.84, 11001.60, 21283.31, 21189.70, 0.000, 0.000, 0.000, 19:07:44.398, 1560874064398
222, 8192.79, 13408.92, 5445.24, 17974.18, 6467.21, 10958.86, 21293.39, 21155.10, 0.000, 0.000, 0.000, 19:07:44.398, 1560874064398
223, 8215.41, 13439.41, 5483.22, 17989.06, 6462.63, 10913.95, 21328.59, 21192.94, 0.000, 0.000, 0.000, 19:07:44.399, 1560874064399
224, 8229.49, 13445.33, 5498.84, 17995.68, 6481.71, 10944.08, 21348.29, 21253.96, 0.000, 0.000, 0.000, 19:07:44.399, 1560874064399
225, 8204.68, 13409.62, 5465.52, 17979.32, 6491.75, 11002.96, 21328.53, 21272.78, 0.010, 0.052, -1.028, 19:07:44.399, 1560874064399
226, 8177.47, 13393.48, 5428.32, 17970.98, 6487.44, 11014.13, 21299.85, 21205.41, 0.000, 0.000, 0.000, 19:07:44.399, 1560874064399
227, 8191.20, 13416.28, 5442.78, 17979.29, 6473.76, 10966.41, 21302.82, 21166.63, 0.000, 0.000, 0.000, 19:07:44.399, 1560874064399
228, 8229.29, 13450.43, 5486.01, 17993.69, 6467.39, 10922.43, 21339.46, 21201.95, 0.000, 0.000, 0.000, 19:07:44.399, 1560874064399
229, 8240.89, 13452.46, 5499.40, 17995.21, 6482.63, 10944.89, 21349.45, 21258.81, 0.000, 0.000, 0.000, 19:07:44.399, 1560874064399
230, 8213.64, 13415.47, 5467.53, 17975.63, 6492.65, 11003.96, 21322.78, 21272.96, 0.000, 0.000, 0.000, 19:07:44.400, 1560874064400
231, 8192.72, 13402.58, 5435.34, 17972.52, 6492.00, 11023.92, 21298.64, 21209.75, 0.000, 0.000, 0.000, 19:07:44.400, 1560874064400
232, 8216.25, 13424.26, 5450.67, 17981.75, 6480.66, 10976.34, 21308.01, 21174.34, 0.000, 0.000, 0.000, 19:07:44.400, 1560874064400
233, 8227.99, 13445.22, 5485.68, 17990.65, 6469.67, 10922.81, 21334.31, 21201.41, 0.000, 0.000, 0.000, 19:07:44.400, 1560874064400
234, 8237.00, 13444.95, 5497.79, 17996.10, 6485.76, 10946.88, 21346.70, 21256.73, 0.000, 0.000, 0.000, 19:07:44.400, 1560874064400
235, 8214.27, 13412.37, 5465.76, 17980.95, 6496.60, 11008.19, 21328.84, 21277.21, 0.008, 0.052, -1.034, 19:07:44.400, 1560874064400
236, 8190.64, 13400.27, 5435.41, 17976.75, 6496.49, 11024.95, 21304.79, 21216.39, 0.000, 0.000, 0.000, 19:07:44.400, 1560874064400
237, 8221.73, 13421.08, 5451.10, 17984.17, 6481.71, 10978.08, 21309.24, 21179.46, 0.000, 0.000, 0.000, 19:07:44.400, 1560874064400
238, 8247.91, 13446.14, 5485.54, 17987.21, 6467.86, 10922.87, 21334.92, 21205.39, 0.000, 0.000, 0.000, 19:07:44.400, 1560874064400
239, 8231.95, 13441.18, 5495.91, 17990.16, 6480.28, 10940.02, 21349.87, 21258.36, 0.000, 0.000, 0.000, 19:07:44.400, 1560874064400
240, 8204.99, 13405.59, 5464.17, 17975.83, 6493.54, 10998.13, 21331.19, 21280.83, 0.000, 0.000, 0.000, 19:07:44.401, 1560874064401
241, 8190.13, 13391.56, 5427.14, 17965.13, 6487.88, 11015.61, 21301.39, 21212.32, 0.000, 0.000, 0.000, 19:07:44.401, 1560874064401
242, 8189.52, 13412.01, 5443.28, 17976.52, 6475.48, 10969.57, 21307.76, 21175.62, 0.000, 0.000, 0.000, 19:07:44.871, 1560874064871
243, 8221.93, 13441.51, 5482.77, 17989.44, 6469.06, 10919.74, 21336.64, 21206.57, 0.000, 0.000, 0.000, 19:07:44.871, 1560874064871
244, 8234.18, 13445.33, 5497.32, 17994.90, 6487.37, 10947.21, 21354.79, 21264.67, 0.010, 0.052, -1.032, 19:07:44.871, 1560874064871
245, 8202.64, 13409.68, 5465.43, 17977.13, 6496.71, 11003.79, 21333.98, 21281.92, 0.000, 0.000, 0.000, 19:07:44.872, 1560874064872
246, 8180.02, 13394.51, 5433.22, 17972.86, 6492.47, 11019.92, 21308.52, 21215.52, 0.000, 0.000, 0.000, 19:07:44.872, 1560874064872
247, 8191.00, 13417.44, 5447.41, 17985.40, 6478.03, 10974.57, 21314.13, 21177.29, 0.000, 0.000, 0.000, 19:07:44.872, 1560874064872
248, 8232.50, 13454.10, 5488.40, 18002.09, 6474.83, 10930.85, 21346.85, 21217.19, 0.000, 0.000, 0.000, 19:07:44.872, 1560874064872
249, 8248.31, 13461.07, 5505.26, 18007.86, 6493.54, 10957.85, 21362.21, 21273.34, 0.000, 0.000, 0.000, 19:07:44.872, 1560874064872
250, 8214.65, 13419.03, 5471.62, 17986.18, 6500.87, 11012.12, 21337.60, 21289.37, 0.000, 0.000, 0.000, 19:07:44.872, 1560874064872
251, 8184.63, 13399.60, 5434.13, 17974.78, 6493.83, 11023.68, 21307.09, 21218.38, 0.000, 0.000, 0.000, 19:07:44.872, 1560874064872
252, 8207.14, 13424.59, 5449.44, 17983.56, 6483.48, 10975.51, 21312.16, 21179.71, 0.000, 0.000, 0.000, 19:07:44.872, 1560874064872
253, 8242.07, 13459.13, 5494.42, 17997.27, 6480.80, 10929.78, 21347.30, 21214.55, 0.000, 0.000, 0.000, 19:07:44.872, 1560874064872
254, 8253.07, 13454.39, 5504.21, 17996.06, 6491.53, 10947.73, 21355.44, 21261.56, 0.012, 0.056, -1.030, 19:07:44.872, 1560874064872
255, 8229.35, 13415.58, 5473.94, 17976.08, 6501.30, 11000.95, 21329.69, 21277.92, 0.000, 0.000, 0.000, 19:07:44.872, 1560874064872
0, 8189.92, 13400.61, 5438.92, 17967.81, 6496.49, 11015.12, 21300.29, 21211.42, 0.000, 0.000, 0.000, 19:07:44.872, 1560874064872
1, 8206.96, 13429.60, 5458.18, 17984.93, 6489.96, 10974.26, 21314.82, 21176.36, 0.000, 0.000, 0.000, 19:07:44.872, 1560874064872
2, 8241.98, 13455.73, 5497.81, 17998.27, 6481.16, 10921.71, 21343.32, 21205.19, 0.000, 0.000, 0.000, 19:07:44.872, 1560874064872
3, 8253.92, 13455.73, 5509.91, 17998.92, 6493.72, 10940.46, 21358.07, 21259.95, 0.000, 0.000, 0.000, 19:07:44.872, 1560874064872
4, 8223.27, 13416.37, 5476.96, 17979.74, 6504.54, 11002.06, 21337.62, 21280.85, 0.000, 0.000, 0.000, 19:07:44.872, 1560874064872
5, 8191.98, 13392.79, 5436.70, 17968.16, 6496.09, 11017.64, 21305.66, 21210.60, 0.000, 0.000, 0.000, 19:07:44.872, 1560874064872
6, 8202.53, 13415.05, 5452.10, 17983.19, 6483.75, 10976.49, 21315.38, 21176.11, 0.000, 0.000, 0.000, 19:07:44.872, 1560874064872
7, 8237.06, 13448.51, 5495.18, 17998.45, 6482.54, 10927.57, 21341.78, 21209.26, 0.000, 0.000, 0.000, 19:07:44.872, 1560874064872
8, 8250.65, 13456.51, 5511.45, 18006.43, 6501.65, 10951.71, 21359.15, 21265.18, 0.006, 0.056, -1.034, 19:07:44.872, 1560874064872
9, 8231.37, 13419.32, 5476.51, 17986.54, 6510.15, 11007.47, 21334.81, 21279.71, 0.000, 0.000, 0.000, 19:07:44.873, 1560874064873
10, 8193.93, 13400.09, 5442.00, 17975.90, 6501.65, 11021.71, 21304.30, 21209.73, 0.000, 0.000, 0.000, 19:07:44.873, 1560874064873
11, 8203.45, 13424.37, 5460.58, 17990.20, 6488.96, 10983.51, 21313.01, 21176.44, 0.000, 0.000, 0.000, 19:07:44.873, 1560874064873
12, 8230.92, 13454.77, 5498.95, 18002.45, 6480.98, 10936.84, 21344.98, 21210.40, 0.000, 0.000, 0.000, 19:07:44.873, 1560874064873
13, 8245.02, 13458.30, 5513.62, 18007.53, 6497.52, 10962.28, 21357.43, 21260.96, 0.000, 0.000, 0.000, 19:07:44.873, 1560874064873
14, 8222.85, 13423.65, 5483.98, 17993.89, 6509.39, 11021.53, 21335.52, 21283.96, 0.000, 0.000, 0.000, 19:07:44.873, 1560874064873
15, 8200.16, 13401.30, 5442.45, 17985.76, 6501.47, 11030.90, 21301.73, 21213.50, 0.000, 0.000, 0.000, 19:07:44.873, 1560874064873
16, 8214.80, 13428.57, 5458.47, 18000.55, 6490.12, 10986.91, 21308.88, 21175.24, 0.000, 0.000, 0.000, 19:07:44.873, 1560874064873
17, 8229.11, 13459.50, 5498.82, 18011.41, 6481.58, 10936.24, 21339.25, 21206.46, 0.000, 0.000, 0.000, 19:07:44.873, 1560874064873
18, 8248.78, 13460.20, 5512.12, 18012.78, 6496.74, 10957.47, 21354.28, 21260.51, 0.010, 0.056, -1.032, 19:07:44.873, 1560874064873
19, 8224.26, 13419.52, 5483.53, 17995.12, 6509.36, 11015.01, 21333.71, 21281.07, 0.000, 0.000, 0.000, 19:07:44.873, 1560874064873
20, 8192.07, 13400.74, 5445.09, 17984.57, 6500.62, 11029.65, 21304.99, 21214.11, 0.000, 0.000, 0.000, 19:07:44.874, 1560874064874
21, 8209.97, 13423.81, 5456.15, 17996.19, 6487.84, 10988.79, 21311.00, 21175.48, 0.000, 0.000, 0.000, 19:07:44.876, 1560874064876
22, 8242.03, 13452.15, 5496.65, 18008.11, 6481.07, 10937.31, 21341.51, 21207.92, 0.000, 0.000, 0.000, 19:07:44.877, 1560874064877
23, 8243.79, 13451.73, 5505.55, 18007.97, 6491.10, 10954.17, 21353.54, 21257.20, 0.000, 0.000, 0.000, 19:07:44.878, 1560874064878
24, 8219.83, 13418.22, 5474.68, 17992.66, 6506.50, 11012.55, 21338.96, 21282.59, 0.000, 0.000, 0.000, 19:07:44.879, 1560874064879
25, 8192.99, 13403.63, 5440.39, 17987.21, 6504.94, 11030.61, 21313.04, 21221.48, 0.000, 0.000, 0.000, 19:07:44.879, 1560874064879
26, 8200.39, 13422.42, 5448.15, 17995.30, 6486.45, 10987.69, 21315.16, 21178.03, 0.000, 0.000, 0.000, 19:07:44.879, 1560874064879
27, 8232.84, 13453.04, 5483.15, 18002.05, 6472.37, 10934.03, 21342.43, 21204.79, 0.000, 0.000, 0.000, 19:07:44.879, 1560874064879
28, 8249.85, 13458.61, 5503.63, 18009.02, 6489.23, 10958.37, 21363.15, 21266.03, 0.012, 0.056, -1.032, 19:07:44.879, 1560874064879
29, 8223.68, 13421.15, 5476.36, 17993.67, 6503.55, 11020.44, 21344.04, 21291.71, 0.000, 0.000, 0.000, 19:07:44.879, 1560874064879
30, 8207.02, 13402.13, 5440.46, 17984.53, 6496.53, 11035.88, 21311.09, 21224.19, 0.000, 0.000, 0.000, 19:07:44.879, 1560874064879
31, 8210.91, 13423.50, 5454.34, 17995.93, 6484.46, 10992.95, 21315.81, 21183.06, 0.000, 0.000, 0.000, 19:07:44.880, 1560874064880
32, 8232.35, 13450.32, 5491.56, 18005.51, 6478.79, 10943.06, 21347.84, 21212.23, 0.000, 0.000, 0.000, 19:07:44.880, 1560874064880
33, 8242.12, 13444.01, 5502.08, 18001.83, 6489.34, 10955.66, 21357.47, 21262.34, 0.000, 0.000, 0.000, 19:07:44.880, 1560874064880
34, 8219.03, 13408.39, 5474.72, 17985.40, 6501.38, 11011.92, 21337.22, 21285.37, 0.000, 0.000, 0.000, 19:07:44.880, 1560874064880
35, 8188.63, 13399.78, 5441.46, 17983.07, 6502.55, 11034.47, 21310.73, 21224.23, 0.000, 0.000, 0.000, 19:07:44.880, 1560874064880
36, 8193.93, 13415.76, 5446.87, 17989.76, 6484.06, 10984.25, 21308.74, 21177.88, 0.000, 0.000, 0.000, 19:07:44.880, 1560874064880
37, 8229.84, 13450.12, 5493.34, 18006.74, 6483.97, 10936.46, 21346.45, 21210.44, 0.000, 0.000, 0.000, 19:07:44.881, 1560874064881
38, 8240.53, 13447.08, 5506.24, 18007.01, 6497.21, 10953.56, 21362.61, 21261.74, 0.012, 0.054, -1.034, 19:07:44.881, 1560874064881
39, 8216.52, 13411.67, 5476.04, 17991.21, 6509.19, 11014.25, 21343.90, 21286.30, 0.000, 0.000, 0.000, 19:07:44.881, 1560874064881
40, 8183.33, 13388.96, 5432.81, 17972.79, 6499.91, 11024.17, 21306.49, 21217.66, 0.000, 0.000, 0.000, 19:07:44.881, 1560874064881
41, 8198.93, 13411.76, 5447.61, 17978.67, 6485.90, 10980.54, 21312.46, 21179.46, 0.000, 0.000, 0.000, 19:07:44.881, 1560874064881
42, 8228.62, 13440.64, 5484.74, 17985.13, 6475.50, 10926.38, 21340.51, 21207.69, 0.000, 0.000, 0.000, 19:07:44.881, 1560874064881
43, 8238.63, 13443.90, 5496.38, 17993.47, 6491.15, 10949.14, 21359.24, 21264.98, 0.000, 0.000, 0.000, 19:07:44.881, 1560874064881
44, 8215.90, 13405.19, 5469.72, 17975.79, 6503.46, 11005.04, 21341.24, 21289.34, 0.000, 0.000, 0.000, 19:07:44.881, 1560874064881
45, 8181.70, 13383.13, 5431.21, 17965.68, 6496.13, 11021.85, 21311.87, 21221.19, 0.000, 0.000, 0.000, 19:07:44.881, 1560874064881
46, 8189.75, 13407.07, 5444.19, 17981.84, 6484.64, 10983.67, 21314.58, 21179.66, 0.000, 0.000, 0.000, 19:07:44.882, 1560874064882
47, 8226.98, 13443.55, 5489.23, 18002.61, 6481.18, 10938.50, 21347.73, 21214.69, 0.000, 0.000, 0.000, 19:07:44.882, 1560874064882
48, 8239.77, 13449.69, 5504.99, 18011.91, 6498.50, 10960.13, 21366.72, 21270.81, 0.006, 0.054, -1.034, 19:07:44.882, 1560874064882
49, 8221.11, 13412.59, 5467.86, 17991.28, 6502.97, 11011.77, 21341.56, 21288.90, 0.000, 0.000, 0.000, 19:07:44.882, 1560874064882
50, 8190.64, 13393.12, 5426.51, 17978.07, 6493.38, 11026.09, 21310.49, 21221.51, 0.000, 0.000, 0.000, 19:07:44.882, 1560874064882
51, 8195.00, 13415.61, 5441.67, 17992.10, 6483.55, 10986.49, 21316.95, 21180.98, 0.000, 0.000, 0.000, 19:07:44.882, 1560874064882
52, 8225.51, 13450.83, 5484.83, 18001.58, 6475.79, 10932.26, 21345.85, 21211.27, 0.000, 0.000, 0.000, 19:07:44.882, 1560874064882
53, 8241.07, 13454.54, 5500.45, 18006.88, 6486.95, 10950.03, 21360.35, 21265.92, 0.000, 0.000, 0.000, 19:07:44.882, 1560874064882
54, 8216.03, 13416.32, 5469.20, 17989.22, 6496.74, 11005.17, 21339.70, 21286.37, 0.000, 0.000, 0.000, 19:07:44.882, 1560874064882
55, 8185.68, 13397.61, 5427.67, 17978.49, 6488.87, 11021.94, 21306.91, 21218.67, 0.000, 0.000, 0.000, 19:07:44.882, 1560874064882
56, 8194.13, 13415.70, 5439.48, 17988.59, 6477.29, 10981.17, 21316.01, 21178.03, 0.000, 0.000, 0.000, 19:07:44.882, 1560874064882
57, 8227.16, 13443.41, 5477.03, 17998.56, 6471.84, 10930.99, 21349.07, 21214.13, 0.000, 0.000, 0.000, 19:07:44.882, 1560874064882
58, 8234.11, 13444.04, 5490.35, 18002.83, 6485.56, 10950.83, 21363.08, 21266.75, 0.002, 0.052, -1.034, 19:07:44.882, 1560874064882
59, 8207.47, 13407.45, 5461.27, 17986.07, 6497.32, 11009.22, 21341.11, 21287.51, 0.000, 0.000, 0.000, 19:07:44.882, 1560874064882
60, 8183.73, 13389.32, 5426.02, 17976.03, 6492.91, 11027.43, 21312.63, 21223.27, 0.000, 0.000, 0.000, 19:07:44.882, 1560874064882
61, 8191.24, 13407.49, 5436.91, 17983.95, 6478.72, 10984.90, 21316.16, 21181.41, 0.000, 0.000, 0.000, 19:07:44.882, 1560874064882
62, 8223.45, 13438.16, 5477.59, 17996.86, 6472.77, 10934.52, 21343.48, 21210.08, 0.000, 0.000, 0.000, 19:07:44.883, 1560874064883
63, 8238.81, 13443.10, 5492.87, 18004.58, 6486.16, 10953.72, 21356.22, 21258.30, 0.000, 0.000, 0.000, 19:07:44.883, 1560874064883
64, 8216.93, 13409.64, 5467.50, 17989.98, 6502.99, 11011.23, 21337.71, 21281.47, 0.000, 0.000, 0.000, 19:07:44.883, 1560874064883
65, 8194.55, 13394.66, 5434.65, 17982.47, 6505.52, 11033.31, 21314.15, 21221.42, 0.000, 0.000, 0.000, 19:07:44.883, 1560874064883
66, 8222.40, 13418.53, 5444.35, 17989.98, 6491.95, 10993.35, 21319.07, 21185.52, 0.000, 0.000, 0.000, 19:07:44.883, 1560874064883
67, 8249.47, 13453.38, 5479.98, 18001.85, 6480.75, 10938.09, 21348.80, 21214.96, 0.000, 0.000, 0.000, 19:07:44.883, 1560874064883
68, 8238.79, 13451.30, 5498.08, 18004.69, 6490.81, 10949.43, 21362.03, 21261.78, 0.004, 0.050, -1.028, 19:07:44.883, 1560874064883
69, 8206.80, 13411.05, 5469.02, 17982.89, 6502.37, 11004.52, 21339.03, 21283.35, 0.000, 0.000, 0.000, 19:07:44.883, 1560874064883
70, 8174.57, 13385.32, 5429.66, 17972.17, 6497.94, 11022.76, 21310.85, 21223.25, 0.000, 0.000, 0.000, 19:07:44.883, 1560874064883
71, 8187.78, 13404.41, 5437.31, 17981.96, 6483.88, 10982.10, 21312.83, 21180.69, 0.000, 0.000, 0.000, 19:07:44.883, 1560874064883
72, 8226.38, 13439.72, 5476.22, 17994.70, 6472.60, 10928.19, 21341.74, 21208.99, 0.000, 0.000, 0.000, 19:07:44.883, 1560874064883
73, 8242.67, 13446.34, 5492.76, 18000.11, 6484.31, 10942.14, 21357.45, 21259.26, 0.000, 0.000, 0.000, 19:07:44.883, 1560874064883
74, 8214.69, 13415.40, 5469.11, 17983.50, 6497.58, 10997.88, 21337.89, 21282.28, 0.000, 0.000, 0.000, 19:07:44.883, 1560874064883
75, 8188.72, 13397.39, 5433.08, 17974.54, 6494.01, 11018.83, 21308.90, 21221.26, 0.000, 0.000, 0.000, 19:07:44.883, 1560874064883
76, 8202.62, 13416.17, 5441.40, 17989.13, 6480.78, 10984.12, 21312.41, 21177.23, 0.000, 0.000, 0.000, 19:07:44.884, 1560874064884
77, 8231.70, 13443.25, 5478.88, 18000.82, 6469.65, 10930.58, 21337.98, 21201.46, 0.000, 0.000, 0.000, 19:07:44.884, 1560874064884
78, 8254.12, 13446.54, 5494.91, 17999.93, 6479.21, 10941.58, 21349.16, 21250.43, 0.004, 0.048, -1.026, 19:07:44.884, 1560874064884
79, 8214.67, 13410.17, 5471.80, 17984.62, 6492.60, 11002.33, 21331.12, 21275.08, 0.000, 0.000, 0.000, 19:07:44.884, 1560874064884
80, 8177.18, 13393.21, 5435.59, 17975.14, 6492.42, 11023.52, 21302.64, 21214.42, 0.000, 0.000, 0.000, 19:07:44.884, 1560874064884
81, 8197.59, 13420.19, 5447.59, 17986.58, 6484.75, 10985.08, 21311.61, 21178.37, 0.000, 0.000, 0.000, 19:07:44.884, 1560874064884
82, 8231.23, 13448.91, 5481.83, 17997.58, 6475.08, 10932.06, 21337.78, 21205.46, 0.000, 0.000, 0.000, 19:07:44.884, 1560874064884
83, 8246.23, 13450.99, 5498.51, 18001.33, 6488.15, 10947.48, 21351.68, 21254.25, 0.000, 0.000, 0.000, 19:07:44.884, 1560874064884
84, 8223.92, 13412.70, 5467.59, 17985.11, 6498.05, 11004.41, 21333.55, 21278.97, 0.000, 0.000, 0.000, 19:07:44.884, 1560874064884
85, 8189.41, 13392.20, 5427.70, 17975.14, 6497.94, 11026.23, 21307.38, 21220.10, 0.000, 0.000, 0.000, 19:07:44.884, 1560874064884
86, 8194.64, 13409.84, 5441.55, 17983.63, 6486.43, 10984.45, 21311.02, 21178.23, 0.000, 0.000, 0.000, 19:07:44.884, 1560874064884
87, 8225.06, 13439.83, 5482.75, 17989.40, 6475.61, 10925.82, 21339.46, 21204.99, 0.000, 0.000, 0.000, 19:07:44.884, 1560874064884
88, 8243.19, 13445.85, 5498.89, 17989.73, 6488.60, 10937.49, 21354.97, 21254.52, 0.006, 0.046, -1.030, 19:07:44.884, 1560874064884
89, 8217.28, 13408.01, 5465.67, 17970.22, 6498.23, 10994.44, 21339.43, 21281.34, 0.000, 0.000, 0.000, 19:07:44.884, 1560874064884
90, 8181.21, 13388.22, 5427.18, 17961.77, 6496.18, 11015.99, 21312.92, 21221.04, 0.000, 0.000, 0.000, 19:07:44.884, 1560874064884
91, 8199.54, 13403.33, 5431.03, 17965.37, 6480.51, 10966.95, 21310.00, 21173.05, 0.000, 0.000, 0.000, 19:07:44.885, 1560874064885
92, 8226.47, 13435.50, 5469.90, 17974.47, 6470.38, 10916.50, 21342.05, 21200.41, 0.000, 0.000, 0.000, 19:07:44.885, 1560874064885
93, 8231.97, 13445.56, 5490.57, 17989.18, 6484.53, 10936.75, 21357.54, 21251.63, 0.000, 0.000, 0.000, 19:07:44.885, 1560874064885
94, 8212.90, 13412.34, 5468.89, 17980.41, 6498.72, 10999.05, 21343.68, 21284.40, 0.000, 0.000, 0.000, 19:07:44.885, 1560874064885
95, 8179.87, 13386.66, 5426.98, 17966.62, 6488.47, 11017.08, 21307.09, 21215.31, 0.000, 0.000, 0.000, 19:07:44.885, 1560874064885
96, 8189.86, 13406.67, 5434.13, 17979.65, 6474.27, 10978.39, 21309.97, 21174.03, 0.000, 0.000, 0.000, 19:07:44.885, 1560874064885
97, 8228.26, 13442.96, 5473.83, 17995.81, 6464.59, 10928.66, 21340.91, 21206.80, 0.000, 0.000, 0.000, 19:07:44.885, 1560874064885
98, 8242.67, 13451.64, 5485.88, 17998.54, 6473.27, 10946.72, 21358.68, 21261.89, 0.008, 0.052, -1.028, 19:07:44.885, 1560874064885
99, 8207.90, 13406.55, 5452.37, 17974.42, 6484.62, 11001.17, 21338.16, 21283.22, 0.000, 0.000, 0.000, 19:07:44.885, 1560874064885
100, 8177.59, 13384.40, 5412.61, 17964.07, 6482.81, 11022.45, 21309.10, 21221.26, 0.000, 0.000, 0.000, 19:07:44.885, 1560874064885
101, 8193.28, 13409.93, 5425.42, 17977.71, 6476.31, 10982.82, 21309.68, 21174.39, 0.000, 0.000, 0.000, 19:07:44.885, 1560874064885
102, 8221.66, 13442.67, 5466.77, 17993.51, 6468.62, 10926.63, 21340.19, 21206.02, 0.000, 0.000, 0.000, 19:07:44.885, 1560874064885
103, 8232.66, 13448.73, 5485.99, 18001.96, 6481.40, 10942.59, 21354.03, 21253.49, 0.000, 0.000, 0.000, 19:07:44.885, 1560874064885
104, 8217.93, 13417.39, 5461.56, 17990.31, 6494.50, 11004.05, 21332.44, 21280.25, 0.000, 0.000, 0.000, 19:07:44.885, 1560874064885
105, 8187.62, 13395.42, 5425.80, 17984.35, 6490.97, 11030.94, 21304.86, 21225.73, 0.000, 0.000, 0.000, 19:07:44.886, 1560874064886
106, 8197.81, 13413.57, 5433.62, 17993.06, 6474.25, 10992.03, 21309.77, 21180.42, 0.000, 0.000, 0.000, 19:07:45.347, 1560874065347
107, 8240.82, 13440.75, 5471.24, 18004.24, 6459.01, 10941.60, 21337.47, 21205.46, 0.008, 0.048, -1.030, 19:07:45.348, 1560874065348
108, 8239.39, 13446.38, 5487.76, 18003.30, 6473.31, 10958.39, 21355.86, 21256.42, 0.000, 0.000, 0.000, 19:07:45.348, 1560874065348
109, 8207.34, 13414.73, 5461.00, 17983.61, 6487.33, 11015.25, 21334.72, 21278.57, 0.000, 0.000, 0.000, 19:07:45.348, 1560874065348
110, 8181.70, 13391.91, 5424.14, 17971.74, 6480.60, 11032.15, 21303.65, 21219.43, 0.000, 0.000, 0.000, 19:07:45.348, 1560874065348
111, 8190.86, 13406.89, 5432.95, 17978.47, 6466.09, 10984.79, 21304.14, 21177.72, 0.000, 0.000, 0.000, 19:07:45.348, 1560874065348
112, 8225.42, 13438.00, 5468.85, 17990.09, 6458.45, 10926.52, 21335.79, 21205.28, 0.000, 0.000, 0.000, 19:07:45.348, 1560874065348
113, 8236.13, 13439.14, 5484.34, 17990.00, 6469.78, 10934.72, 21349.92, 21252.13, 0.000, 0.000, 0.000, 19:07:45.348, 1560874065348
114, 8210.76, 13402.80, 5461.45, 17972.28, 6488.09, 10994.87, 21334.65, 21278.21, 0.000, 0.000, 0.000, 19:07:45.348, 1560874065348
115, 8185.79, 13390.28, 5428.50, 17966.53, 6492.65, 11023.12, 21310.46, 21221.44, 0.000, 0.000, 0.000, 19:07:45.348, 1560874065348
116, 8199.36, 13412.59, 5437.31, 17978.51, 6482.14, 10985.10, 21311.65, 21175.95, 0.000, 0.000, 0.000, 19:07:45.348, 1560874065348
117, 8228.35, 13439.61, 5479.22, 17996.15, 6469.47, 10930.90, 21338.54, 21203.42, 0.010, 0.054, -1.032, 19:07:45.348, 1560874065348
118, 8244.87, 13454.97, 5499.15, 18007.68, 6481.27, 10947.10, 21357.38, 21255.44, 0.000, 0.000, 0.000, 19:07:45.348, 1560874065348
119, 8227.52, 13421.60, 5471.68, 17995.34, 6491.97, 11006.47, 21341.38, 21286.48, 0.000, 0.000, 0.000, 19:07:45.348, 1560874065348
120, 8197.35, 13399.71, 5436.23, 17985.93, 6488.93, 11029.80, 21311.29, 21227.63, 0.000, 0.000, 0.000, 19:07:45.348, 1560874065348
121, 8200.79, 13414.64, 5436.79, 17991.88, 6469.35, 10988.97, 21307.98, 21175.37, 0.000, 0.000, 0.000, 19:07:45.348, 1560874065348
122, 8225.22, 13445.29, 5471.06, 18001.69, 6457.37, 10935.21, 21333.35, 21198.62, 0.000, 0.000, 0.000, 19:07:45.348, 1560874065348
123, 8236.93, 13447.21, 5485.94, 17998.47, 6465.78, 10940.02, 21344.91, 21245.60, 0.000, 0.000, 0.000, 19:07:45.348, 1560874065348
124, 8213.71, 13411.65, 5457.85, 17978.00, 6475.28, 10993.50, 21323.59, 21268.22, 0.000, 0.000, 0.000, 19:07:45.348, 1560874065348
125, 8178.82, 13388.22, 5418.85, 17964.77, 6471.57, 11011.32, 21290.01, 21204.41, 0.000, 0.000, 0.000, 19:07:45.348, 1560874065348
126, 8190.46, 13407.09, 5427.58, 17975.74, 6462.02, 10973.41, 21294.53, 21160.51, 0.000, 0.000, 0.000, 19:07:45.348, 1560874065348
127, 8235.23, 13446.32, 5476.85, 17996.64, 6462.25, 10928.84, 21334.87, 21197.97, 0.008, 0.054, -1.038, 19:07:45.348, 1560874065348
128, 8252.02, 13453.40, 5497.25, 18002.68, 6477.29, 10945.87, 21353.31, 21253.00, 0.000, 0.000, 0.000, 19:07:45.348, 1560874065348
129, 8238.14, 13417.98, 5468.13, 17986.78, 6490.70, 11002.78, 21336.88, 21282.57, 0.000, 0.000, 0.000, 19:07:45.349, 1560874065349
130, 8191.96, 13394.93, 5420.39, 17971.90, 6480.73, 11017.98, 21307.31, 21222.27, 0.000, 0.000, 0.000, 19:07:45.349, 1560874065349
131, 8191.02, 13412.99, 5432.79, 17981.35, 6471.37, 10979.47, 21305.19, 21173.67, 0.000, 0.000, 0.000, 19:07:45.349, 1560874065349
132, 8227.19, 13446.59, 5481.12, 17994.92, 6469.89, 10928.73, 21339.95, 21203.82, 0.000, 0.000, 0.000, 19:07:45.349, 1560874065349
133, 8244.66, 13451.26, 5497.88, 17998.34, 6482.18, 10939.57, 21360.98, 21259.03, 0.000, 0.000, 0.000, 19:07:45.349, 1560874065349
134, 8223.92, 13417.44, 5471.22, 17981.73, 6497.18, 10996.92, 21340.69, 21283.33, 0.000, 0.000, 0.000, 19:07:45.349, 1560874065349
135, 8195.27, 13396.92, 5431.25, 17971.92, 6488.76, 11024.17, 21311.38, 21223.63, 0.000, 0.000, 0.000, 19:07:45.349, 1560874065349
136, 8192.56, 13407.07, 5434.07, 17977.22, 6468.57, 10984.47, 21304.86, 21170.37, 0.000, 0.000, 0.000, 19:07:45.349, 1560874065349
137, 8231.39, 13443.43, 5481.18, 17997.18, 6462.78, 10935.57, 21334.81, 21196.72, 0.008, 0.054, -1.038, 19:07:45.349, 1560874065349
138, 8249.49, 13453.87, 5502.69, 18004.31, 6477.00, 10947.19, 21351.93, 21247.81, 0.000, 0.000, 0.000, 19:07:45.349, 1560874065349
139, 8226.92, 13418.29, 5477.16, 17985.40, 6490.75, 11000.30, 21334.16, 21277.56, 0.000, 0.000, 0.000, 19:07:45.349, 1560874065349
140, 8194.93, 13391.40, 5437.35, 17966.71, 6487.39, 11016.46, 21305.53, 21218.20, 0.000, 0.000, 0.000, 19:07:45.349, 1560874065349
141, 8201.55, 13411.34, 5444.66, 17975.96, 6476.37, 10975.29, 21307.80, 21168.06, 0.000, 0.000, 0.000, 19:07:45.349, 1560874065349
142, 8236.75, 13446.63, 5482.88, 17991.23, 6468.35, 10922.40, 21339.48, 21201.37, 0.000, 0.000, 0.000, 19:07:45.349, 1560874065349
143, 8253.56, 13452.71, 5499.71, 17996.93, 6481.78, 10933.42, 21355.10, 21254.70, 0.000, 0.000, 0.000, 19:07:45.349, 1560874065349
144, 8223.90, 13414.78, 5465.74, 17979.21, 6491.37, 10987.42, 21335.77, 21280.09, 0.000, 0.000, 0.000, 19:07:45.349, 1560874065349
145, 8191.82, 13393.34, 5425.71, 17968.92, 6485.69, 11008.35, 21302.31, 21219.45, 0.000, 0.000, 0.000, 19:07:45.349, 1560874065349
146, 8202.58, 13416.05, 5437.51, 17983.81, 6476.51, 10974.68, 21303.58, 21172.20, 0.000, 0.000, 0.000, 19:07:45.349, 1560874065349
147, 8234.43, 13444.08, 5476.96, 17997.09, 6464.84, 10922.02, 21330.78, 21194.93, 0.008, 0.052, -1.036, 19:07:45.349, 1560874065349
148, 8251.55, 13455.62, 5497.70, 18004.08, 6476.42, 10933.69, 21351.14, 21248.71, 0.000, 0.000, 0.000, 19:07:45.349, 1560874065349
149, 8222.22, 13421.17, 5468.38, 17986.09, 6488.49, 10990.00, 21328.84, 21273.29, 0.000, 0.000, 0.000, 19:07:45.349, 1560874065349
150, 8189.84, 13395.04, 5423.18, 17972.99, 6479.28, 11014.13, 21296.45, 21212.01, 0.000, 0.000, 0.000, 19:07:45.349, 1560874065349
151, 8210.04, 13416.57, 5432.73, 17983.95, 6466.83, 10980.23, 21301.08, 21169.38, 0.000, 0.000, 0.000, 19:07:45.349, 1560874065349
152, 8245.36, 13455.59, 5479.13, 18002.81, 6464.91, 10933.49, 21338.65, 21201.17, 0.000, 0.000, 0.000, 19:07:45.350, 1560874065350
153, 8249.96, 13459.15, 5493.97, 18010.32, 6477.71, 10943.37, 21357.05, 21252.55, 0.000, 0.000, 0.000, 19:07:45.350, 1560874065350
154, 8232.17, 13423.79, 5468.09, 17992.33, 6491.91, 10996.19, 21340.73, 21284.76, 0.000, 0.000, 0.000, 19:07:45.350, 1560874065350
155, 8189.30, 13396.45, 5424.99, 17974.65, 6485.20, 11013.73, 21303.85, 21223.36, 0.000, 0.000, 0.000, 19:07:45.350, 1560874065350
156, 8194.33, 13413.91, 5432.50, 17983.16, 6475.59, 10976.58, 21304.47, 21175.24, 0.000, 0.000, 0.000, 19:07:45.350, 1560874065350
157, 8231.54, 13446.88, 5475.82, 17996.57, 6471.23, 10927.14, 21338.65, 21204.14, 0.006, 0.050, -1.036, 19:07:45.350, 1560874065350
158, 8248.42, 13454.16, 5494.55, 17999.26, 6480.51, 10938.47, 21355.88, 21254.83, 0.000, 0.000, 0.000, 19:07:45.350, 1560874065350
159, 8222.76, 13417.57, 5470.30, 17981.08, 6489.45, 10998.24, 21338.14, 21284.04, 0.000, 0.000, 0.000, 19:07:45.350, 1560874065350
160, 8189.68, 13394.75, 5430.78, 17968.61, 6483.57, 11021.96, 21307.22, 21224.23, 0.000, 0.000, 0.000, 19:07:45.350, 1560874065350
161, 8195.47, 13412.68, 5434.16, 17977.04, 6470.58, 10981.39, 21299.87, 21170.25, 0.000, 0.000, 0.000, 19:07:45.350, 1560874065350
162, 8232.66, 13449.20, 5477.38, 17992.84, 6461.24, 10926.34, 21328.08, 21193.81, 0.000, 0.000, 0.000, 19:07:45.350, 1560874065350
163, 8249.83, 13458.90, 5497.03, 18002.01, 6472.13, 10935.21, 21344.11, 21243.16, 0.000, 0.000, 0.000, 19:07:45.350, 1560874065350
164, 8228.88, 13427.65, 5471.98, 17987.52, 6489.34, 10994.58, 21331.70, 21275.98, 0.000, 0.000, 0.000, 19:07:45.350, 1560874065350
165, 8197.57, 13405.50, 5431.65, 17978.54, 6489.14, 11017.64, 21303.92, 21223.00, 0.000, 0.000, 0.000, 19:07:45.350, 1560874065350
166, 8196.14, 13415.70, 5432.99, 17984.68, 6477.85, 10973.88, 21296.67, 21170.03, 0.000, 0.000, 0.000, 19:07:45.350, 1560874065350
167, 8226.85, 13440.30, 5470.90, 17991.72, 6464.62, 10913.48, 21327.72, 21192.67, 0.010, 0.052, -1.036, 19:07:45.350, 1560874065350
168, 8248.53, 13450.14, 5492.92, 17994.12, 6477.58, 10923.43, 21347.77, 21247.81, 0.000, 0.000, 0.000, 19:07:45.350, 1560874065350
169, 8224.28, 13418.15, 5467.39, 17975.34, 6490.10, 10978.24, 21330.89, 21280.45, 0.000, 0.000, 0.000, 19:07:45.350, 1560874065350
170, 8190.13, 13389.77, 5419.27, 17958.91, 6477.69, 10995.74, 21297.48, 21217.13, 0.000, 0.000, 0.000, 19:07:45.350, 1560874065350
171, 8202.02, 13410.49, 5428.30, 17974.67, 6466.99, 10963.69, 21298.80, 21166.68, 0.000, 0.000, 0.000, 19:07:45.350, 1560874065350
172, 8233.64, 13446.52, 5475.37, 17993.62, 6462.52, 10917.42, 21336.88, 21199.60, 0.000, 0.000, 0.000, 19:07:45.350, 1560874065350
173, 8254.83, 13455.15, 5499.42, 18003.64, 6478.83, 10935.61, 21355.88, 21251.28, 0.000, 0.000, 0.000, 19:07:45.350, 1560874065350
174, 8232.57, 13421.66, 5470.59, 17991.14, 6493.27, 11001.48, 21338.81, 21286.33, 0.000, 0.000, 0.000, 19:07:45.350, 1560874065350
175, 8206.87, 13398.75, 5423.45, 17979.59, 6488.11, 11028.73, 21308.10, 21227.43, 0.000, 0.000, 0.000, 19:07:45.351, 1560874065351
176, 8197.37, 13410.49, 5423.07, 17986.63, 6469.69, 10988.68, 21300.70, 21172.67, 0.000, 0.000, 0.000, 19:07:45.351, 1560874065351
177, 8225.22, 13444.08, 5463.77, 18002.45, 6457.82, 10934.56, 21327.01, 21194.84, 0.012, 0.054, -1.034, 19:07:45.351, 1560874065351
178, 8239.01, 13452.67, 5486.84, 18008.49, 6471.25, 10943.03, 21353.13, 21253.56, 0.000, 0.000, 0.000, 19:07:45.351, 1560874065351
179, 8215.05, 13414.18, 5459.15, 17986.85, 6483.44, 10992.43, 21333.85, 21280.22, 0.000, 0.000, 0.000, 19:07:45.351, 1560874065351
180, 8185.72, 13387.38, 5418.58, 17969.35, 6477.74, 11009.37, 21300.07, 21214.38, 0.000, 0.000, 0.000, 19:07:45.351, 1560874065351
181, 8197.37, 13410.29, 5428.75, 17980.70, 6469.49, 10973.45, 21301.17, 21166.23, 0.000, 0.000, 0.000, 19:07:45.351, 1560874065351
182, 8232.46, 13446.34, 5473.43, 17994.74, 6467.01, 10922.96, 21333.76, 21199.51, 0.000, 0.000, 0.000, 19:07:45.351, 1560874065351
183, 8243.84, 13445.47, 5490.46, 17995.79, 6477.62, 10930.92, 21352.82, 21248.75, 0.000, 0.000, 0.000, 19:07:45.351, 1560874065351
184, 8218.47, 13404.07, 5465.18, 17980.28, 6491.10, 10992.83, 21336.01, 21278.48, 0.000, 0.000, 0.000, 19:07:45.351, 1560874065351
185, 8186.35, 13378.99, 5423.94, 17968.77, 6485.56, 11021.82, 21303.56, 21222.62, 0.000, 0.000, 0.000, 19:07:45.351, 1560874065351
186, 8186.19, 13390.24, 5419.69, 17974.63, 6466.90, 10982.82, 21300.38, 21172.44, 0.000, 0.000, 0.000, 19:07:45.351, 1560874065351
187, 8220.59, 13428.91, 5465.54, 17997.98, 6462.25, 10933.91, 21335.43, 21199.40, 0.010, 0.056, -1.034, 19:07:45.351, 1560874065351
188, 8233.04, 13439.01, 5482.77, 18003.55, 6467.12, 10936.40, 21347.99, 21244.95, 0.000, 0.000, 0.000, 19:07:45.352, 1560874065352
189, 8211.09, 13406.26, 5458.43, 17986.29, 6478.90, 10990.38, 21331.72, 21275.13, 0.000, 0.000, 0.000, 19:07:45.352, 1560874065352
190, 8178.86, 13380.71, 5417.03, 17969.71, 6474.14, 11010.65, 21302.02, 21220.03, 0.000, 0.000, 0.000, 19:07:45.352, 1560874065352
191, 8187.40, 13402.53, 5423.38, 17980.66, 6465.09, 10974.48, 21302.17, 21172.33, 0.000, 0.000, 0.000, 19:07:45.352, 1560874065352
192, 8221.91, 13436.66, 5465.85, 17992.91, 6457.44, 10916.35, 21329.33, 21194.39, 0.000, 0.000, 0.000, 19:07:45.352, 1560874065352
193, 8242.14, 13449.96, 5489.45, 17998.90, 6474.72, 10924.84, 21352.67, 21248.30, 0.000, 0.000, 0.000, 19:07:45.352, 1560874065352
194, 8211.87, 13406.04, 5453.74, 17971.61, 6481.07, 10974.71, 21328.35, 21276.69, 0.000, 0.000, 0.000, 19:07:45.352, 1560874065352
195, 8185.23, 13383.35, 5412.50, 17960.81, 6478.65, 11003.96, 21296.05, 21219.09, 0.000, 0.000, 0.000, 19:07:45.352, 1560874065352
196, 8195.13, 13404.43, 5422.26, 17975.50, 6471.12, 10977.79, 21297.26, 21168.55, 0.000, 0.000, 0.000, 19:07:45.352, 1560874065352
197, 8224.97, 13439.39, 5463.17, 17990.87, 6464.48, 10931.81, 21332.91, 21200.38, 0.012, 0.054, -1.036, 19:07:45.352, 1560874065352
198, 8233.02, 13447.12, 5483.40, 17994.43, 6473.31, 10941.65, 21353.02, 21252.73, 0.000, 0.000, 0.000, 19:07:45.352, 1560874065352
199, 8207.69, 13405.15, 5454.85, 17971.76, 6482.90, 10991.56, 21331.97, 21279.84, 0.000, 0.000, 0.000, 19:07:45.352, 1560874065352
200, 8173.61, 13380.71, 5416.54, 17961.15, 6480.64, 11016.08, 21304.16, 21226.65, 0.000, 0.000, 0.000, 19:07:45.352, 1560874065352
201, 8181.54, 13402.62, 5424.01, 17975.12, 6471.01, 10983.42, 21300.14, 21173.99, 0.000, 0.000, 0.000, 19:07:45.352, 1560874065352
202, 8218.11, 13433.31, 5462.45, 17986.40, 6457.84, 10924.50, 21327.05, 21195.24, 0.000, 0.000, 0.000, 19:07:45.352, 1560874065352
203, 8242.38, 13448.35, 5489.01, 17995.63, 6475.41, 10932.19, 21353.11, 21251.10, 0.000, 0.000, 0.000, 19:07:45.352, 1560874065352
204, 8212.77, 13408.27, 5462.34, 17975.70, 6486.16, 10982.40, 21333.46, 21278.84, 0.000, 0.000, 0.000, 19:07:45.352, 1560874065352
205, 8181.65, 13387.38, 5423.43, 17963.89, 6482.70, 11008.97, 21300.23, 21219.92, 0.000, 0.000, 0.000, 19:07:45.352, 1560874065352
206, 8190.22, 13401.79, 5425.73, 17968.07, 6472.46, 10973.39, 21298.87, 21167.97, 0.000, 0.000, 0.000, 19:07:45.352, 1560874065352
207, 8217.04, 13430.42, 5464.58, 17979.09, 6465.13, 10917.69, 21330.56, 21194.01, 0.012, 0.056, -1.032, 19:07:45.352, 1560874065352
208, 8235.23, 13439.34, 5487.55, 17984.19, 6480.64, 10925.31, 21350.30, 21247.88, 0.000, 0.000, 0.000, 19:07:45.352, 1560874065352
209, 8207.56, 13399.96, 5459.35, 17963.25, 6495.60, 10982.78, 21333.53, 21280.71, 0.000, 0.000, 0.000, 19:07:45.352, 1560874065352
210, 8174.59, 13365.90, 5413.12, 17947.69, 6491.93, 11012.30, 21302.04, 21228.32, 0.000, 0.000, 0.000, 19:07:45.352, 1560874065352
211, 8163.66, 13375.98, 5412.68, 17954.04, 6474.85, 10980.16, 21296.50, 21174.23, 0.000, 0.000, 0.000, 19:07:45.352, 1560874065352
212, 8188.52, 13407.31, 5452.08, 17972.93, 6460.79, 10933.13, 21332.15, 21203.27, 0.000, 0.000, 0.000, 19:07:45.352, 1560874065352
213, 8204.90, 13413.86, 5469.58, 17980.70, 6467.14, 10940.28, 21350.63, 21252.55, 0.000, 0.000, 0.000, 19:07:45.353, 1560874065353
214, 8180.51, 13378.26, 5447.57, 17964.52, 6481.20, 10994.42, 21333.09, 21282.68, 0.000, 0.000, 0.000, 19:07:45.353, 1560874065353
215, 8142.81, 13346.43, 5409.97, 17951.00, 6478.12, 11017.60, 21301.61, 21227.43, 0.000, 0.000, 0.000, 19:07:45.353, 1560874065353
216, 8136.35, 13349.98, 5410.26, 17952.09, 6461.31, 10971.20, 21295.24, 21168.53, 0.010, 0.054, -1.036, 19:07:45.353, 1560874065353
217, 8164.00, 13374.79, 5448.44, 17960.27, 6450.74, 10911.43, 21321.19, 21187.46, 0.000, 0.000, 0.000, 19:07:45.353, 1560874065353
218, 8174.10, 13372.29, 5468.15, 17964.07, 6464.21, 10916.66, 21343.26, 21239.57, 0.000, 0.000, 0.000, 19:07:45.353, 1560874065353
219, 8135.32, 13320.70, 5439.99, 17943.33, 6476.73, 10970.10, 21326.54, 21270.72, 0.000, 0.000, 0.000, 19:07:45.353, 1560874065353
220, 8077.34, 13269.54, 5393.54, 17923.06, 6473.53, 10994.76, 21287.60, 21209.30, 0.000, 0.000, 0.000, 19:07:45.353, 1560874065353
221, 8068.93, 13273.31, 5394.12, 17929.14, 6463.59, 10964.04, 21285.81, 21158.34, 0.000, 0.000, 0.000, 19:07:45.353, 1560874065353
222, 8085.14, 13289.07, 5430.33, 17941.88, 6456.30, 10911.56, 21320.79, 21183.51, 0.000, 0.000, 0.000, 19:07:45.353, 1560874065353
223, 8084.71, 13284.16, 5445.85, 17944.52, 6463.52, 10914.09, 21339.50, 21229.91, 0.000, 0.000, 0.000, 19:07:45.353, 1560874065353
224, 8037.49, 13230.76, 5413.66, 17925.05, 6470.67, 10966.64, 21321.60, 21264.22, 0.000, 0.000, 0.000, 19:07:45.353, 1560874065353
225, 7987.26, 13187.22, 5366.65, 17905.85, 6462.65, 10988.77, 21290.06, 21207.92, 0.000, 0.000, 0.000, 19:07:45.353, 1560874065353
0, 8385.68, 13583.11, 5493.19, 18073.02, 6518.33, 10891.13, 21392.99, 21494.89, 0.012, 0.054, -1.026, 19:08:11.683, 1560874091683
1, 8416.86, 13600.14, 5523.99, 18084.42, 6527.16, 10886.33, 21418.76, 21544.18, 0.000, 0.000, 0.000, 19:08:12.166, 1560874092166
2, 8395.23, 13563.95, 5500.18, 18062.98, 6533.48, 10928.10, 21401.84, 21581.73, 0.000, 0.000, 0.000, 19:08:12.166, 1560874092166
3, 8346.59, 13533.94, 5457.45, 18043.76, 6531.76, 10961.00, 21372.09, 21544.00, 0.000, 0.000, 0.000, 19:08:12.166, 1560874092166
4, 8349.94, 13548.17, 5454.72, 18052.79, 6525.46, 10941.74, 21365.21, 21481.63, 0.000, 0.000, 0.000, 19:08:12.166, 1560874092166
5, 8387.38, 13582.51, 5493.68, 18069.11, 6515.85, 10889.10, 21392.32, 21495.49, 0.000, 0.000, 0.000, 19:08:12.166, 1560874092166
6, 8408.06, 13596.50, 5524.37, 18079.34, 6524.81, 10883.09, 21417.06, 21544.98, 0.000, 0.000, 0.000, 19:08:12.166, 1560874092166
7, 8399.29, 13567.64, 5508.72, 18065.73, 6542.15, 10933.04, 21406.04, 21587.96, 0.006, 0.054, -1.022, 19:08:12.166, 1560874092166
8, 8359.75, 13534.07, 5461.69, 18045.48, 6539.92, 10962.03, 21373.83, 21546.97, 0.000, 0.000, 0.000, 19:08:12.166, 1560874092166
9, 8352.91, 13543.99, 5454.18, 18054.89, 6530.93, 10941.58, 21363.93, 21479.24, 0.000, 0.000, 0.000, 19:08:12.166, 1560874092166
10, 8384.34, 13580.96, 5495.80, 18073.82, 6522.26, 10888.50, 21390.28, 21490.71, 0.000, 0.000, 0.000, 19:08:12.167, 1560874092167
11, 8415.92, 13596.23, 5525.60, 18080.66, 6526.46, 10879.08, 21411.67, 21536.91, 0.000, 0.000, 0.000, 19:08:12.168, 1560874092168
12, 8408.86, 13568.09, 5505.10, 18066.33, 6538.53, 10926.99, 21400.41, 21580.18, 0.000, 0.000, 0.000, 19:08:12.168, 1560874092168
13, 8369.36, 13535.39, 5462.70, 18051.47, 6538.09, 10962.05, 21369.03, 21540.96, 0.000, 0.000, 0.000, 19:08:12.168, 1560874092168
14, 8347.73, 13541.13, 5453.11, 18054.20, 6521.17, 10939.48, 21353.72, 21469.21, 0.000, 0.000, 0.000, 19:08:12.168, 1560874092168
15, 8373.41, 13572.85, 5489.23, 18068.66, 6509.36, 10883.56, 21379.46, 21479.62, 0.000, 0.000, 0.000, 19:08:12.168, 1560874092168
16, 8402.94, 13597.77, 5522.83, 18082.52, 6523.29, 10880.92, 21411.41, 21534.41, 0.000, 0.000, 0.000, 19:08:12.168, 1560874092168
17, 8393.42, 13572.07, 5506.08, 18073.49, 6538.96, 10931.95, 21404.46, 21580.97, 0.004, 0.054, -1.028, 19:08:12.169, 1560874092169
18, 8354.32, 13533.78, 5455.86, 18048.90, 6530.60, 10957.96, 21366.63, 21538.74, 0.000, 0.000, 0.000, 19:08:12.169, 1560874092169
19, 8351.01, 13544.31, 5448.30, 18055.49, 6522.66, 10936.15, 21358.07, 21472.56, 0.000, 0.000, 0.000, 19:08:12.169, 1560874092169
20, 8384.70, 13580.38, 5491.78, 18074.69, 6516.00, 10886.08, 21385.48, 21484.41, 0.000, 0.000, 0.000, 19:08:12.169, 1560874092169
21, 8404.84, 13599.11, 5522.20, 18084.53, 6525.06, 10881.23, 21412.32, 21537.40, 0.000, 0.000, 0.000, 19:08:12.169, 1560874092169
22, 8389.26, 13570.44, 5505.55, 18070.42, 6538.33, 10931.70, 21403.16, 21582.44, 0.000, 0.000, 0.000, 19:08:12.169, 1560874092169
23, 8356.40, 13537.80, 5467.17, 18053.79, 6541.86, 10967.51, 21374.01, 21545.74, 0.000, 0.000, 0.000, 19:08:12.169, 1560874092169
24, 8350.70, 13552.94, 5460.93, 18061.88, 6534.60, 10951.15, 21368.58, 21483.69, 0.000, 0.000, 0.000, 19:08:12.169, 1560874092169
25, 8391.02, 13580.45, 5489.36, 18071.61, 6517.84, 10891.56, 21390.19, 21490.62, 0.000, 0.000, 0.000, 19:08:12.169, 1560874092169
26, 8422.34, 13595.29, 5512.88, 18075.50, 6523.54, 10878.44, 21415.05, 21537.31, 0.000, 0.000, 0.000, 19:08:12.169, 1560874092169
27, 8387.71, 13566.59, 5501.41, 18059.47, 6539.58, 10925.35, 21404.07, 21578.71, 0.006, 0.052, -1.030, 19:08:12.170, 1560874092170
28, 8358.90, 13536.24, 5463.24, 18044.18, 6539.29, 10959.46, 21373.32, 21540.89, 0.000, 0.000, 0.000, 19:08:12.170, 1560874092170
29, 8343.86, 13544.35, 5454.25, 18053.35, 6527.78, 10937.69, 21365.00, 21475.00, 0.000, 0.000, 0.000, 19:08:12.170, 1560874092170
30, 8372.36, 13577.37, 5493.34, 18072.17, 6517.59, 10884.83, 21391.38, 21486.35, 0.000, 0.000, 0.000, 19:08:12.170, 1560874092170
31, 8397.42, 13592.83, 5518.27, 18080.06, 6520.07, 10872.09, 21413.22, 21534.27, 0.000, 0.000, 0.000, 19:08:12.170, 1560874092170
32, 8385.32, 13567.98, 5503.09, 18071.36, 6537.24, 10923.61, 21406.20, 21580.47, 0.000, 0.000, 0.000, 19:08:12.170, 1560874092170
33, 8349.07, 13536.69, 5457.58, 18050.89, 6534.62, 10957.14, 21371.80, 21540.89, 0.000, 0.000, 0.000, 19:08:12.170, 1560874092170
34, 8347.79, 13545.47, 5447.05, 18050.24, 6522.78, 10933.65, 21355.91, 21469.34, 0.000, 0.000, 0.000, 19:08:12.170, 1560874092170
35, 8379.42, 13574.79, 5483.87, 18062.96, 6509.90, 10878.95, 21381.72, 21480.05, 0.000, 0.000, 0.000, 19:08:12.170, 1560874092170
36, 8400.37, 13590.67, 5511.92, 18070.02, 6513.30, 10867.24, 21407.56, 21528.89, 0.008, 0.056, -1.032, 19:08:12.170, 1560874092170
37, 8389.08, 13569.54, 5506.98, 18062.51, 6535.36, 10925.17, 21404.10, 21579.89, 0.000, 0.000, 0.000, 19:08:12.170, 1560874092170
38, 8360.60, 13530.99, 5462.30, 18042.73, 6533.75, 10959.66, 21371.42, 21542.34, 0.000, 0.000, 0.000, 19:08:12.170, 1560874092170
39, 8349.36, 13538.41, 5450.29, 18051.38, 6524.25, 10940.13, 21362.93, 21475.76, 0.000, 0.000, 0.000, 19:08:12.170, 1560874092170
40, 8377.61, 13576.07, 5491.24, 18071.34, 6519.06, 10891.54, 21391.54, 21487.96, 0.000, 0.000, 0.000, 19:08:12.170, 1560874092170
41, 8397.19, 13591.76, 5518.27, 18077.67, 6523.45, 10878.01, 21414.45, 21535.75, 0.000, 0.000, 0.000, 19:08:12.171, 1560874092171
42, 8380.03, 13560.04, 5499.38, 18062.36, 6530.13, 10922.94, 21402.93, 21577.52, 0.000, 0.000, 0.000, 19:08:12.171, 1560874092171
43, 8352.53, 13533.27, 5453.92, 18047.87, 6527.67, 10959.04, 21374.39, 21543.19, 0.000, 0.000, 0.000, 19:08:12.171, 1560874092171
44, 8349.61, 13543.50, 5444.84, 18055.94, 6519.24, 10937.49, 21362.77, 21475.67, 0.000, 0.000, 0.000, 19:08:12.171, 1560874092171
45, 8379.74, 13574.46, 5486.82, 18075.30, 6510.79, 10886.37, 21387.29, 21484.59, 0.000, 0.000, 0.000, 19:08:12.171, 1560874092171
46, 8408.03, 13594.60, 5521.35, 18090.18, 6520.23, 10881.46, 21414.87, 21535.73, 0.008, 0.054, -1.040, 19:08:12.171, 1560874092171
47, 8406.31, 13572.83, 5508.03, 18076.64, 6535.52, 10933.83, 21409.35, 21585.88, 0.000, 0.000, 0.000, 19:08:12.171, 1560874092171
48, 8392.54, 13544.91, 5462.52, 18054.49, 6533.30, 10967.15, 21377.72, 21552.20, 0.000, 0.000, 0.000, 19:08:12.171, 1560874092171
49, 8350.34, 13542.88, 5451.75, 18052.45, 6518.64, 10941.94, 21360.38, 21478.08, 0.000, 0.000, 0.000, 19:08:12.171, 1560874092171
50, 8364.31, 13571.15, 5491.29, 18068.17, 6508.36, 10888.90, 21385.08, 21483.58, 0.000, 0.000, 0.000, 19:08:12.171, 1560874092171
51, 8402.13, 13595.56, 5524.50, 18085.60, 6519.18, 10882.80, 21414.71, 21537.11, 0.000, 0.000, 0.000, 19:08:12.171, 1560874092171
52, 8390.71, 13566.86, 5508.94, 18073.38, 6534.11, 10931.57, 21403.78, 21581.23, 0.000, 0.000, 0.000, 19:08:12.171, 1560874092171
53, 8349.92, 13539.08, 5466.95, 18059.94, 6535.34, 10967.08, 21370.26, 21544.76, 0.000, 0.000, 0.000, 19:08:12.171, 1560874092171
54, 8350.57, 13553.07, 5459.70, 18072.53, 6528.01, 10948.69, 21362.97, 21478.88, 0.000, 0.000, 0.000, 19:08:12.171, 1560874092171
55, 8378.86, 13580.72, 5493.08, 18085.64, 6512.49, 10891.31, 21387.51, 21486.60, 0.000, 0.000, 0.000, 19:08:12.171, 1560874092171
56, 8413.93, 13606.80, 5527.39, 18099.23, 6519.85, 10884.49, 21416.88, 21539.44, 0.008, 0.056, -1.034, 19:08:12.171, 1560874092171
57, 8401.19, 13581.21, 5514.64, 18084.53, 6534.71, 10933.47, 21411.09, 21585.59, 0.000, 0.000, 0.000, 19:08:12.171, 1560874092171
58, 8368.47, 13544.84, 5472.91, 18062.00, 6538.00, 10970.35, 21378.82, 21549.67, 0.000, 0.000, 0.000, 19:08:12.171, 1560874092171
59, 8356.40, 13547.62, 5456.26, 18060.81, 6525.17, 10945.65, 21360.29, 21475.82, 0.000, 0.000, 0.000, 19:08:12.171, 1560874092171
60, 8391.83, 13583.15, 5493.88, 18075.47, 6516.18, 10891.54, 21387.62, 21485.48, 0.000, 0.000, 0.000, 19:08:12.171, 1560874092171
61, 8405.80, 13598.60, 5522.71, 18085.98, 6520.99, 10879.91, 21412.72, 21532.44, 0.000, 0.000, 0.000, 19:08:12.171, 1560874092171
62, 8398.31, 13576.47, 5512.19, 18078.78, 6535.56, 10930.54, 21407.47, 21580.34, 0.000, 0.000, 0.000, 19:08:12.171, 1560874092171
63, 8359.78, 13542.12, 5467.75, 18057.66, 6531.45, 10961.59, 21374.82, 21541.47, 0.000, 0.000, 0.000, 19:08:12.171, 1560874092171
64, 8355.06, 13547.75, 5456.46, 18059.14, 6521.79, 10938.23, 21357.05, 21467.38, 0.000, 0.000, 0.000, 19:08:12.172, 1560874092172
65, 8389.64, 13582.44, 5494.06, 18074.36, 6512.38, 10881.14, 21378.50, 21471.40, 0.000, 0.000, 0.000, 19:08:12.172, 1560874092172
66, 8420.75, 13599.29, 5521.42, 18084.30, 6516.87, 10868.51, 21400.59, 21516.15, 0.012, 0.054, -1.034, 19:08:12.172, 1560874092172
67, 8405.28, 13576.47, 5510.96, 18076.48, 6535.49, 10921.38, 21395.51, 21567.29, 0.000, 0.000, 0.000, 19:08:12.172, 1560874092172
68, 8360.78, 13543.61, 5466.88, 18057.28, 6534.11, 10958.37, 21364.67, 21535.53, 0.000, 0.000, 0.000, 19:08:12.172, 1560874092172
69, 8353.88, 13551.26, 5456.31, 18062.69, 6523.60, 10941.74, 21354.70, 21470.50, 0.000, 0.000, 0.000, 19:08:12.172, 1560874092172
70, 8386.69, 13581.28, 5494.75, 18078.13, 6516.67, 10890.53, 21381.52, 21481.77, 0.000, 0.000, 0.000, 19:08:12.172, 1560874092172
71, 8419.14, 13601.30, 5531.05, 18090.25, 6529.53, 10881.48, 21411.47, 21536.44, 0.000, 0.000, 0.000, 19:08:12.172, 1560874092172
72, 8405.57, 13579.76, 5518.82, 18076.73, 6543.45, 10929.20, 21404.59, 21583.36, 0.000, 0.000, 0.000, 19:08:12.172, 1560874092172
73, 8374.64, 13550.21, 5473.96, 18057.55, 6542.11, 10965.74, 21375.71, 21552.98, 0.000, 0.000, 0.000, 19:08:12.172, 1560874092172
74, 8367.22, 13548.24, 5455.52, 18056.30, 6528.41, 10942.59, 21360.98, 21480.05, 0.000, 0.000, 0.000, 19:08:12.172, 1560874092172
75, 8386.08, 13577.43, 5493.30, 18068.63, 6517.75, 10886.10, 21386.33, 21484.96, 0.000, 0.000, 0.000, 19:08:12.172, 1560874092172
76, 8413.33, 13598.76, 5522.24, 18080.95, 6522.78, 10875.35, 21413.66, 21535.75, 0.012, 0.054, -1.030, 19:08:12.172, 1560874092172
77, 8404.84, 13578.97, 5511.00, 18072.90, 6540.30, 10928.48, 21410.60, 21584.14, 0.000, 0.000, 0.000, 19:08:12.172, 1560874092172
78, 8360.65, 13543.88, 5468.06, 18052.39, 6537.30, 10961.59, 21377.54, 21549.18, 0.000, 0.000, 0.000, 19:08:12.172, 1560874092172
79, 8361.68, 13553.47, 5461.78, 18060.30, 6528.70, 10942.92, 21366.84, 21481.75, 0.000, 0.000, 0.000, 19:08:12.172, 1560874092172
80, 8386.02, 13583.47, 5499.07, 18073.98, 6519.36, 10889.72, 21392.99, 21488.29, 0.000, 0.000, 0.000, 19:08:12.172, 1560874092172
81, 8407.90, 13599.11, 5526.98, 18079.14, 6525.08, 10873.56, 21417.26, 21534.36, 0.000, 0.000, 0.000, 19:08:12.172, 1560874092172
82, 8404.81, 13573.79, 5511.43, 18067.05, 6541.04, 10924.55, 21412.39, 21583.78, 0.000, 0.000, 0.000, 19:08:12.172, 1560874092172
83, 8371.87, 13531.83, 5464.84, 18047.31, 6537.39, 10960.09, 21378.84, 21549.85, 0.000, 0.000, 0.000, 19:08:12.172, 1560874092172
84, 8345.36, 13534.23, 5452.44, 18051.04, 6525.39, 10941.13, 21366.90, 21481.66, 0.000, 0.000, 0.000, 19:08:12.172, 1560874092172
85, 8378.57, 13575.24, 5492.16, 18069.33, 6516.61, 10890.02, 21391.98, 21488.72, 0.000, 0.000, 0.000, 19:08:12.172, 1560874092172
86, 8409.15, 13599.18, 5524.37, 18082.45, 6520.74, 10877.05, 21416.41, 21536.42, 0.008, 0.052, -1.038, 19:08:12.173, 1560874092173
87, 8400.97, 13570.33, 5510.98, 18064.88, 6530.35, 10918.16, 21404.74, 21578.80, 0.000, 0.000, 0.000, 19:08:12.173, 1560874092173
88, 8368.49, 13539.10, 5470.99, 18048.92, 6533.35, 10957.63, 21379.58, 21551.91, 0.000, 0.000, 0.000, 19:08:12.173, 1560874092173
89, 8352.02, 13539.68, 5454.88, 18050.44, 6523.92, 10937.09, 21367.26, 21481.97, 0.000, 0.000, 0.000, 19:08:12.173, 1560874092173
90, 8382.22, 13573.97, 5493.81, 18066.80, 6517.75, 10886.66, 21396.25, 21490.49, 0.000, 0.000, 0.000, 19:08:12.173, 1560874092173
91, 8414.11, 13591.18, 5523.99, 18073.93, 6522.66, 10868.36, 21417.78, 21535.59, 0.000, 0.000, 0.000, 19:08:12.173, 1560874092173
92, 8397.28, 13565.74, 5511.40, 18063.40, 6537.17, 10917.31, 21411.25, 21582.60, 0.000, 0.000, 0.000, 19:08:12.173, 1560874092173
93, 8354.81, 13533.56, 5469.65, 18047.71, 6539.29, 10958.95, 21383.11, 21554.23, 0.000, 0.000, 0.000, 19:08:12.173, 1560874092173
94, 8346.90, 13537.78, 5457.47, 18052.07, 6527.22, 10940.02, 21369.09, 21484.83, 0.000, 0.000, 0.000, 19:08:12.173, 1560874092173
95, 8380.96, 13568.58, 5494.44, 18066.80, 6516.11, 10884.43, 21391.92, 21487.33, 0.000, 0.000, 0.000, 19:08:12.173, 1560874092173
96, 8412.50, 13590.80, 5522.67, 18078.04, 6518.84, 10868.31, 21414.33, 21532.80, 0.006, 0.058, -1.036, 19:08:12.173, 1560874092173
97, 8416.66, 13580.27, 5517.89, 18075.54, 6539.43, 10926.67, 21415.18, 21587.65, 0.000, 0.000, 0.000, 19:08:12.173, 1560874092173
98, 8365.83, 13543.44, 5474.23, 18056.54, 6537.13, 10964.16, 21381.88, 21555.75, 0.000, 0.000, 0.000, 19:08:12.173, 1560874092173
99, 8353.76, 13544.55, 5458.59, 18056.70, 6527.07, 10941.16, 21366.28, 21482.24, 0.000, 0.000, 0.000, 19:08:12.173, 1560874092173
100, 8385.91, 13575.73, 5493.52, 18074.16, 6518.84, 10890.31, 21389.75, 21486.75, 0.000, 0.000, 0.000, 19:08:12.173, 1560874092173
101, 8409.75, 13596.32, 5524.55, 18082.92, 6524.36, 10877.25, 21414.49, 21537.22, 0.000, 0.000, 0.000, 19:08:12.173, 1560874092173
102, 8392.59, 13572.25, 5514.91, 18072.32, 6541.28, 10926.36, 21409.89, 21585.77, 0.000, 0.000, 0.000, 19:08:12.173, 1560874092173
103, 8359.26, 13535.79, 5470.79, 18054.98, 6538.00, 10964.27, 21378.79, 21553.92, 0.000, 0.000, 0.000, 19:08:12.173, 1560874092173
104, 8349.54, 13542.23, 5453.02, 18058.20, 6522.48, 10942.72, 21364.51, 21481.32, 0.000, 0.000, 0.000, 19:08:12.173, 1560874092173
105, 8377.23, 13576.87, 5488.11, 18073.82, 6511.51, 10886.86, 21391.24, 21488.56, 0.000, 0.000, 0.000, 19:08:12.174, 1560874092174
106, 8415.74, 13601.77, 5521.06, 18084.66, 6518.06, 10874.41, 21418.58, 21539.32, 0.006, 0.054, -1.034, 19:08:12.174, 1560874092174
107, 8413.11, 13584.16, 5513.28, 18078.20, 6536.90, 10926.58, 21416.01, 21589.91, 0.000, 0.000, 0.000, 19:08:12.174, 1560874092174
108, 8362.59, 13549.29, 5466.32, 18059.25, 6534.71, 10962.55, 21380.49, 21557.59, 0.000, 0.000, 0.000, 19:08:12.174, 1560874092174
109, 8349.02, 13548.20, 5451.32, 18063.36, 6525.57, 10946.03, 21363.55, 21483.09, 0.000, 0.000, 0.000, 19:08:12.174, 1560874092174
110, 8389.93, 13580.76, 5484.25, 18079.39, 6519.69, 10895.00, 21389.68, 21489.70, 0.000, 0.000, 0.000, 19:08:12.174, 1560874092174
111, 8405.46, 13601.66, 5516.54, 18091.75, 6526.78, 10878.93, 21416.72, 21537.11, 0.000, 0.000, 0.000, 19:08:12.174, 1560874092174
112, 8398.24, 13580.20, 5510.06, 18084.88, 6545.35, 10927.41, 21411.81, 21586.55, 0.000, 0.000, 0.000, 19:08:12.174, 1560874092174
113, 8368.34, 13543.46, 5465.29, 18062.20, 6541.84, 10964.63, 21378.46, 21557.16, 0.000, 0.000, 0.000, 19:08:12.174, 1560874092174
114, 8346.52, 13549.60, 5454.83, 18068.57, 6531.60, 10953.05, 21366.54, 21487.54, 0.000, 0.000, 0.000, 19:08:12.174, 1560874092174
115, 8375.44, 13584.83, 5487.58, 18081.96, 6516.38, 10899.34, 21388.74, 21487.71, 0.000, 0.000, 0.000, 19:08:12.174, 1560874092174
116, 8405.80, 13602.60, 5514.35, 18090.38, 6516.74, 10882.15, 21412.01, 21533.38, 0.006, 0.052, -1.034, 19:08:12.174, 1560874092174
117, 8402.18, 13585.68, 5506.06, 18087.79, 6537.13, 10933.94, 21412.43, 21587.00, 0.000, 0.000, 0.000, 19:08:12.174, 1560874092174
118, 8361.27, 13551.66, 5459.35, 18065.28, 6536.30, 10966.62, 21378.46, 21555.13, 0.000, 0.000, 0.000, 19:08:12.174, 1560874092174
119, 8352.09, 13556.85, 5446.58, 18066.87, 6525.73, 10944.98, 21363.64, 21481.68, 0.000, 0.000, 0.000, 19:08:12.174, 1560874092174
120, 8385.23, 13589.14, 5485.21, 18085.31, 6515.13, 10891.98, 21390.13, 21486.31, 0.000, 0.000, 0.000, 19:08:12.174, 1560874092174
121, 8416.39, 13611.97, 5520.19, 18095.88, 6521.52, 10877.30, 21419.30, 21535.93, 0.000, 0.000, 0.000, 19:08:12.174, 1560874092174
122, 8407.25, 13588.03, 5508.27, 18084.44, 6535.72, 10925.89, 21413.84, 21584.77, 0.000, 0.000, 0.000, 19:08:12.646, 1560874092646
123, 8376.12, 13552.69, 5466.74, 18064.54, 6537.06, 10966.73, 21381.77, 21556.56, 0.000, 0.000, 0.000, 19:08:12.646, 1560874092646
124, 8369.07, 13555.48, 5449.98, 18064.08, 6526.51, 10950.28, 21366.30, 21485.79, 0.000, 0.000, 0.000, 19:08:12.646, 1560874092646
125, 8379.33, 13581.39, 5481.05, 18077.13, 6516.16, 10896.32, 21391.98, 21488.74, 0.000, 0.000, 0.000, 19:08:12.646, 1560874092646
126, 8401.60, 13601.77, 5515.47, 18088.80, 6521.88, 10881.90, 21419.21, 21534.21, 0.006, 0.050, -1.034, 19:08:12.646, 1560874092646
127, 8393.21, 13579.94, 5508.01, 18078.76, 6538.47, 10929.58, 21413.91, 21582.82, 0.000, 0.000, 0.000, 19:08:12.646, 1560874092646
128, 8357.61, 13539.21, 5461.38, 18055.36, 6536.39, 10963.69, 21377.52, 21551.39, 0.000, 0.000, 0.000, 19:08:12.646, 1560874092646
129, 8347.13, 13541.76, 5445.91, 18055.58, 6524.99, 10945.47, 21358.57, 21475.76, 0.000, 0.000, 0.000, 19:08:12.647, 1560874092647
130, 8375.35, 13577.14, 5485.97, 18072.37, 6517.72, 10891.54, 21384.88, 21481.30, 0.000, 0.000, 0.000, 19:08:12.647, 1560874092647
131, 8403.12, 13599.36, 5516.61, 18082.05, 6521.34, 10873.21, 21410.65, 21528.48, 0.000, 0.000, 0.000, 19:08:12.647, 1560874092647
132, 8393.26, 13574.26, 5506.08, 18071.14, 6538.06, 10921.26, 21406.13, 21578.48, 0.000, 0.000, 0.000, 19:08:12.647, 1560874092647
133, 8358.50, 13534.18, 5461.76, 18046.33, 6537.46, 10958.34, 21373.21, 21547.42, 0.000, 0.000, 0.000, 19:08:12.647, 1560874092647
134, 8345.60, 13539.86, 5451.37, 18048.54, 6531.45, 10945.60, 21362.50, 21479.76, 0.000, 0.000, 0.000, 19:08:12.647, 1560874092647
135, 8394.20, 13572.13, 5485.65, 18062.11, 6521.39, 10891.20, 21386.28, 21483.02, 0.000, 0.000, 0.000, 19:08:12.647, 1560874092647
136, 8409.49, 13593.48, 5521.17, 18077.44, 6527.83, 10877.05, 21415.83, 21531.23, 0.004, 0.056, -1.030, 19:08:12.647, 1560874092647
137, 8382.75, 13574.30, 5515.43, 18069.04, 6547.12, 10922.65, 21413.08, 21582.84, 0.000, 0.000, 0.000, 19:08:12.647, 1560874092647
138, 8341.45, 13537.09, 5463.59, 18045.05, 6542.82, 10954.34, 21377.30, 21551.78, 0.000, 0.000, 0.000, 19:08:12.647, 1560874092647
139, 8341.40, 13540.82, 5450.96, 18049.99, 6532.14, 10939.79, 21361.09, 21479.20, 0.000, 0.000, 0.000, 19:08:12.647, 1560874092647
140, 8379.56, 13574.71, 5490.15, 18068.63, 6526.96, 10892.74, 21389.57, 21484.43, 0.000, 0.000, 0.000, 19:08:12.647, 1560874092647
141, 8409.17, 13599.90, 5522.98, 18082.07, 6531.60, 10878.19, 21418.04, 21534.92, 0.000, 0.000, 0.000, 19:08:12.647, 1560874092647
142, 8397.91, 13578.08, 5513.30, 18073.20, 6547.68, 10926.94, 21413.15, 21583.65, 0.000, 0.000, 0.000, 19:08:12.647, 1560874092647
143, 8360.96, 13543.12, 5471.73, 18056.16, 6549.13, 10968.07, 21382.71, 21558.21, 0.000, 0.000, 0.000, 19:08:12.647, 1560874092647
144, 8346.77, 13547.97, 5453.51, 18055.22, 6535.38, 10952.31, 21366.26, 21485.21, 0.000, 0.000, 0.000, 19:08:12.647, 1560874092647
145, 8373.21, 13575.47, 5483.84, 18066.74, 6521.79, 10893.75, 21387.45, 21483.78, 0.004, 0.056, -1.030, 19:08:12.647, 1560874092647
146, 8403.88, 13601.91, 5518.60, 18079.63, 6527.54, 10875.93, 21416.72, 21533.98, 0.000, 0.000, 0.000, 19:08:12.647, 1560874092647
147, 8399.41, 13587.00, 5512.36, 18074.94, 6545.10, 10927.03, 21416.72, 21587.72, 0.000, 0.000, 0.000, 19:08:12.648, 1560874092648
148, 8366.77, 13555.95, 5474.03, 18059.74, 6551.65, 10971.15, 21387.71, 21563.71, 0.000, 0.000, 0.000, 19:08:12.648, 1560874092648
149, 8357.79, 13558.25, 5461.18, 18063.58, 6543.65, 10957.94, 21371.55, 21493.68, 0.000, 0.000, 0.000, 19:08:12.648, 1560874092648
150, 8391.69, 13586.66, 5495.85, 18078.49, 6528.94, 10903.02, 21390.39, 21491.07, 0.000, 0.000, 0.000, 19:08:12.648, 1560874092648
151, 8425.02, 13607.56, 5530.00, 18088.69, 6532.27, 10879.29, 21415.25, 21532.24, 0.000, 0.000, 0.000, 19:08:12.648, 1560874092648
152, 8401.93, 13589.21, 5524.41, 18083.70, 6551.48, 10928.19, 21415.94, 21586.06, 0.000, 0.000, 0.000, 19:08:12.649, 1560874092649
153, 8372.65, 13558.81, 5482.88, 18065.24, 6554.05, 10971.40, 21387.22, 21567.15, 0.000, 0.000, 0.000, 19:08:12.649, 1560874092649
154, 8359.17, 13562.55, 5466.59, 18067.09, 6544.86, 10957.90, 21374.28, 21495.45, 0.000, 0.000, 0.000, 19:08:12.649, 1560874092649
155, 8382.87, 13590.71, 5497.21, 18080.95, 6534.40, 10904.99, 21398.44, 21494.58, 0.008, 0.054, -1.032, 19:08:12.649, 1560874092649
156, 8409.06, 13611.05, 5529.96, 18092.19, 6540.84, 10889.05, 21429.00, 21545.54, 0.000, 0.000, 0.000, 19:08:12.649, 1560874092649
157, 8396.46, 13586.42, 5517.21, 18082.18, 6556.62, 10934.83, 21425.62, 21595.81, 0.000, 0.000, 0.000, 19:08:12.649, 1560874092649
158, 8362.26, 13547.71, 5469.90, 18058.33, 6554.72, 10970.21, 21389.37, 21567.55, 0.000, 0.000, 0.000, 19:08:12.649, 1560874092649
159, 8358.08, 13552.02, 5454.99, 18060.95, 6545.91, 10954.50, 21374.14, 21495.67, 0.000, 0.000, 0.000, 19:08:12.649, 1560874092649
160, 8378.06, 13581.08, 5490.10, 18075.07, 6534.87, 10899.85, 21397.23, 21494.20, 0.000, 0.000, 0.000, 19:08:12.649, 1560874092649
161, 8408.01, 13605.69, 5526.63, 18086.32, 6538.56, 10881.12, 21427.81, 21539.88, 0.000, 0.000, 0.000, 19:08:12.649, 1560874092649
162, 8405.87, 13586.91, 5518.11, 18078.36, 6552.93, 10927.90, 21426.13, 21590.96, 0.000, 0.000, 0.000, 19:08:12.649, 1560874092649
163, 8362.82, 13545.07, 5469.40, 18051.34, 6546.18, 10963.62, 21391.85, 21562.88, 0.000, 0.000, 0.000, 19:08:12.649, 1560874092649
164, 8349.83, 13543.61, 5453.24, 18047.54, 6537.82, 10946.72, 21373.43, 21488.77, 0.000, 0.000, 0.000, 19:08:12.649, 1560874092649
165, 8383.71, 13577.52, 5486.08, 18063.58, 6528.14, 10896.18, 21396.43, 21489.46, 0.010, 0.056, -1.030, 19:08:12.649, 1560874092649
166, 8417.71, 13607.18, 5523.03, 18082.14, 6538.67, 10884.92, 21428.55, 21542.25, 0.000, 0.000, 0.000, 19:08:12.649, 1560874092649
167, 8390.49, 13579.62, 5515.20, 18073.69, 6552.88, 10929.76, 21422.29, 21590.62, 0.000, 0.000, 0.000, 19:08:12.649, 1560874092649
168, 8354.90, 13541.16, 5471.10, 18051.34, 6552.88, 10969.07, 21388.67, 21564.87, 0.000, 0.000, 0.000, 19:08:12.650, 1560874092650
169, 8349.18, 13545.34, 5452.80, 18053.68, 6540.48, 10959.17, 21369.70, 21491.65, 0.000, 0.000, 0.000, 19:08:12.650, 1560874092650
170, 8381.39, 13587.67, 5495.42, 18080.13, 6534.73, 10913.48, 21399.45, 21496.97, 0.000, 0.000, 0.000, 19:08:12.650, 1560874092650
171, 8409.58, 13612.91, 5530.56, 18091.23, 6536.01, 10888.07, 21424.77, 21540.42, 0.000, 0.000, 0.000, 19:08:12.650, 1560874092650
172, 8402.58, 13583.11, 5519.88, 18073.78, 6548.79, 10923.99, 21415.34, 21582.44, 0.000, 0.000, 0.000, 19:08:12.650, 1560874092650
173, 8373.37, 13542.76, 5476.02, 18053.91, 6554.60, 10967.75, 21386.19, 21562.68, 0.000, 0.000, 0.000, 19:08:12.650, 1560874092650
174, 8357.00, 13549.52, 5460.49, 18060.61, 6548.08, 10963.26, 21373.94, 21494.26, 0.000, 0.000, 0.000, 19:08:12.650, 1560874092650
175, 8383.16, 13581.68, 5494.71, 18079.50, 6539.96, 10914.98, 21397.95, 21494.76, 0.008, 0.054, -1.026, 19:08:12.650, 1560874092650
176, 8408.32, 13603.11, 5525.28, 18089.80, 6542.33, 10893.93, 21424.84, 21539.55, 0.000, 0.000, 0.000, 19:08:12.650, 1560874092650
177, 8404.77, 13582.55, 5515.90, 18077.78, 6553.73, 10935.23, 21418.63, 21585.79, 0.000, 0.000, 0.000, 19:08:12.650, 1560874092650
178, 8370.19, 13548.42, 5472.47, 18056.83, 6550.58, 10973.28, 21385.61, 21565.10, 0.000, 0.000, 0.000, 19:08:12.650, 1560874092650
179, 8366.86, 13557.99, 5458.45, 18061.55, 6541.86, 10959.02, 21371.53, 21493.57, 0.000, 0.000, 0.000, 19:08:12.650, 1560874092650
180, 8384.56, 13585.12, 5490.55, 18075.12, 6528.85, 10903.34, 21392.23, 21491.16, 0.000, 0.000, 0.000, 19:08:12.650, 1560874092650
181, 8404.61, 13608.03, 5525.22, 18087.41, 6531.83, 10882.37, 21420.23, 21539.17, 0.000, 0.000, 0.000, 19:08:12.651, 1560874092651
182, 8400.10, 13588.92, 5514.29, 18074.13, 6544.34, 10923.86, 21414.40, 21587.22, 0.000, 0.000, 0.000, 19:08:12.651, 1560874092651
183, 8366.55, 13554.81, 5473.29, 18055.02, 6548.12, 10965.79, 21383.44, 21565.54, 0.000, 0.000, 0.000, 19:08:12.651, 1560874092651
184, 8353.88, 13556.06, 5457.80, 18059.67, 6542.44, 10954.70, 21369.52, 21493.39, 0.000, 0.000, 0.000, 19:08:12.651, 1560874092651
185, 8385.79, 13583.65, 5493.63, 18073.71, 6529.44, 10900.16, 21390.57, 21488.41, 0.004, 0.048, -1.034, 19:08:12.651, 1560874092651
186, 8418.14, 13605.42, 5527.68, 18084.08, 6530.58, 10879.40, 21420.84, 21535.03, 0.000, 0.000, 0.000, 19:08:12.651, 1560874092651
187, 8409.37, 13585.90, 5520.52, 18073.11, 6542.44, 10922.81, 21416.39, 21583.87, 0.000, 0.000, 0.000, 19:08:12.651, 1560874092651
188, 8367.02, 13547.82, 5475.98, 18050.15, 6542.56, 10961.29, 21383.53, 21560.04, 0.000, 0.000, 0.000, 19:08:12.651, 1560874092651
189, 8357.27, 13549.02, 5450.63, 18047.36, 6529.97, 10944.60, 21365.83, 21487.96, 0.000, 0.000, 0.000, 19:08:12.651, 1560874092651
190, 8386.08, 13582.57, 5486.15, 18064.43, 6522.26, 10895.83, 21389.41, 21487.65, 0.000, 0.000, 0.000, 19:08:12.651, 1560874092651
191, 8407.56, 13602.35, 5522.40, 18074.87, 6528.83, 10876.96, 21417.84, 21532.57, 0.000, 0.000, 0.000, 19:08:12.652, 1560874092652
192, 8401.75, 13587.13, 5516.88, 18066.45, 6548.12, 10925.44, 21414.85, 21581.82, 0.000, 0.000, 0.000, 19:08:12.652, 1560874092652
193, 8362.26, 13547.91, 5469.90, 18045.19, 6547.92, 10966.57, 21383.53, 21561.83, 0.000, 0.000, 0.000, 19:08:12.652, 1560874092652
194, 8350.23, 13544.40, 5447.86, 18046.08, 6537.17, 10954.50, 21366.12, 21489.82, 0.000, 0.000, 0.000, 19:08:12.652, 1560874092652
195, 8384.70, 13576.63, 5483.11, 18061.51, 6525.32, 10901.42, 21387.80, 21488.70, 0.008, 0.048, -1.036, 19:08:12.652, 1560874092652
196, 8400.32, 13601.55, 5518.78, 18077.04, 6529.39, 10878.15, 21416.59, 21533.69, 0.000, 0.000, 0.000, 19:08:12.652, 1560874092652
197, 8389.12, 13576.09, 5509.73, 18065.48, 6540.59, 10916.61, 21408.90, 21577.37, 0.000, 0.000, 0.000, 19:08:12.652, 1560874092652
198, 8359.71, 13543.91, 5466.48, 18046.39, 6540.75, 10956.96, 21378.19, 21556.56, 0.000, 0.000, 0.000, 19:08:12.652, 1560874092652
199, 8352.65, 13546.92, 5447.48, 18049.32, 6533.93, 10947.12, 21365.88, 21486.87, 0.000, 0.000, 0.000, 19:08:12.652, 1560874092652
200, 8381.03, 13577.10, 5480.76, 18063.96, 6524.16, 10898.49, 21386.77, 21483.51, 0.000, 0.000, 0.000, 19:08:12.652, 1560874092652
201, 8418.00, 13609.44, 5522.76, 18083.54, 6534.06, 10883.18, 21418.51, 21532.69, 0.000, 0.000, 0.000, 19:08:12.653, 1560874092653
202, 8404.46, 13589.28, 5514.69, 18077.60, 6549.87, 10928.53, 21416.79, 21584.50, 0.000, 0.000, 0.000, 19:08:12.653, 1560874092653
203, 8371.80, 13550.61, 5471.19, 18056.77, 6549.35, 10971.38, 21385.90, 21565.34, 0.000, 0.000, 0.000, 19:08:12.653, 1560874092653
204, 8358.73, 13553.23, 5453.80, 18057.01, 6541.10, 10958.63, 21367.42, 21493.50, 0.000, 0.000, 0.000, 19:08:12.653, 1560874092653
205, 8385.77, 13585.95, 5486.82, 18075.03, 6530.13, 10907.41, 21386.51, 21486.98, 0.004, 0.052, -1.030, 19:08:12.653, 1560874092653
206, 8423.25, 13612.06, 5522.51, 18086.81, 6530.44, 10880.16, 21413.28, 21531.08, 0.000, 0.000, 0.000, 19:08:12.653, 1560874092653
207, 8414.83, 13597.42, 5523.65, 18083.59, 6551.54, 10926.27, 21416.72, 21588.72, 0.000, 0.000, 0.000, 19:08:12.653, 1560874092653
208, 8366.86, 13557.32, 5478.08, 18060.75, 6550.60, 10969.39, 21382.84, 21566.62, 0.000, 0.000, 0.000, 19:08:12.653, 1560874092653
209, 8365.21, 13556.47, 5459.32, 18060.86, 6541.26, 10957.21, 21365.21, 21492.52, 0.000, 0.000, 0.000, 19:08:12.653, 1560874092653
210, 8383.04, 13582.39, 5487.33, 18074.38, 6526.62, 10903.72, 21382.95, 21484.27, 0.000, 0.000, 0.000, 19:08:12.653, 1560874092653
211, 8404.59, 13608.55, 5523.14, 18091.30, 6530.29, 10885.86, 21416.05, 21535.35, 0.000, 0.000, 0.000, 19:08:12.653, 1560874092653
212, 8402.80, 13592.56, 5514.42, 18083.59, 6543.61, 10930.63, 21416.95, 21589.35, 0.000, 0.000, 0.000, 19:08:12.653, 1560874092653
213, 8370.46, 13561.76, 5471.30, 18062.85, 6545.95, 10973.83, 21388.88, 21573.95, 0.000, 0.000, 0.000, 19:08:12.653, 1560874092653
214, 8360.20, 13565.18, 5459.21, 18066.91, 6541.44, 10968.20, 21374.48, 21503.54, 0.000, 0.000, 0.000, 19:08:12.653, 1560874092653
215, 8384.83, 13591.04, 5493.34, 18084.46, 6530.80, 10916.66, 21393.14, 21497.44, 0.004, 0.052, -1.032, 19:08:12.653, 1560874092653
216, 8416.15, 13610.71, 5525.08, 18093.40, 6534.44, 10888.18, 21419.07, 21540.58, 0.000, 0.000, 0.000, 19:08:12.653, 1560874092653
217, 8397.57, 13589.93, 5514.98, 18079.52, 6547.72, 10926.05, 21414.69, 21588.41, 0.000, 0.000, 0.000, 19:08:12.653, 1560874092653
218, 8366.19, 13553.20, 5476.29, 18062.31, 6551.77, 10972.31, 21385.93, 21570.46, 0.000, 0.000, 0.000, 19:08:12.653, 1560874092653
219, 8361.25, 13556.85, 5461.00, 18063.74, 6544.21, 10965.09, 21368.98, 21497.42, 0.000, 0.000, 0.000, 19:08:12.653, 1560874092653
220, 8388.30, 13582.35, 5486.75, 18072.12, 6525.88, 10905.37, 21382.48, 21485.70, 0.000, 0.000, 0.000, 19:08:12.653, 1560874092653
221, 8417.26, 13610.22, 5524.10, 18086.65, 6531.18, 10882.68, 21412.99, 21532.28, 0.000, 0.000, 0.000, 19:08:12.653, 1560874092653
222, 8410.87, 13597.10, 5524.81, 18081.85, 6552.28, 10929.80, 21416.64, 21587.85, 0.000, 0.000, 0.000, 19:08:12.653, 1560874092653
223, 8379.02, 13556.24, 5475.04, 18055.25, 6548.68, 10970.62, 21385.68, 21569.83, 0.000, 0.000, 0.000, 19:08:12.653, 1560874092653
224, 8351.33, 13554.34, 5450.52, 18053.08, 6535.54, 10959.15, 21365.76, 21494.02, 0.000, 0.000, 0.000, 19:08:12.653, 1560874092653
225, 8377.95, 13586.84, 5485.34, 18074.13, 6527.85, 10907.49, 21388.45, 21489.03, 0.010, 0.052, -1.034, 19:08:12.653, 1560874092653
226, 8411.10, 13613.08, 5522.31, 18089.42, 6533.59, 10884.54, 21418.51, 21534.74, 0.000, 0.000, 0.000, 19:08:12.653, 1560874092653
227, 8410.63, 13597.48, 5516.61, 18081.80, 6549.93, 10928.28, 21419.43, 21586.51, 0.000, 0.000, 0.000, 19:08:12.653, 1560874092653
228, 8374.06, 13554.23, 5468.69, 18055.25, 6547.47, 10966.23, 21385.39, 21564.87, 0.000, 0.000, 0.000, 19:08:12.653, 1560874092653
229, 8352.67, 13554.21, 5450.05, 18053.28, 6537.55, 10956.22, 21366.59, 21491.65, 0.000, 0.000, 0.000, 19:08:12.653, 1560874092653
230, 8378.91, 13580.83, 5480.22, 18066.11, 6524.45, 10903.05, 21386.64, 21487.54, 0.000, 0.000, 0.000, 19:08:12.653, 1560874092653
231, 8409.71, 13604.03, 5513.68, 18075.70, 6524.18, 10877.25, 21411.65, 21528.73, 0.000, 0.000, 0.000, 19:08:12.654, 1560874092654
232, 8409.04, 13589.06, 5512.74, 18069.87, 6542.87, 10924.28, 21413.84, 21584.14, 0.000, 0.000, 0.000, 19:08:12.654, 1560874092654
233, 8376.43, 13550.54, 5470.90, 18047.29, 6543.45, 10966.53, 21386.66, 21570.97, 0.000, 0.000, 0.000, 19:08:12.654, 1560874092654
234, 8353.20, 13549.94, 5447.50, 18047.51, 6533.08, 10954.32, 21367.95, 21494.87, 0.000, 0.000, 0.000, 19:08:12.654, 1560874092654
235, 8377.28, 13580.74, 5474.14, 18060.59, 6520.52, 10898.96, 21386.82, 21487.54, 0.012, 0.048, -1.034, 19:08:12.654, 1560874092654
236, 8407.63, 13604.25, 5508.05, 18071.38, 6520.12, 10872.45, 21415.68, 21531.84, 0.000, 0.000, 0.000, 19:08:12.654, 1560874092654
237, 8408.82, 13585.19, 5500.43, 18059.90, 6532.30, 10911.45, 21412.43, 21579.54, 0.000, 0.000, 0.000, 19:08:12.654, 1560874092654
238, 8363.67, 13549.74, 5460.44, 18042.46, 6533.06, 10958.05, 21384.83, 21566.77, 0.000, 0.000, 0.000, 19:08:12.654, 1560874092654
239, 8342.59, 13545.92, 5439.21, 18043.58, 6520.90, 10946.97, 21363.30, 21489.66, 0.000, 0.000, 0.000, 19:08:12.654, 1560874092654
240, 8367.29, 13571.17, 5470.05, 18058.55, 6509.23, 10891.96, 21380.38, 21480.12, 0.000, 0.000, 0.000, 19:08:12.654, 1560874092654
241, 8411.72, 13602.80, 5508.32, 18075.61, 6517.12, 10870.44, 21416.14, 21531.17, 0.000, 0.000, 0.000, 19:08:12.654, 1560874092654
242, 8410.31, 13592.43, 5509.88, 18071.54, 6535.29, 10913.71, 21416.90, 21582.96, 0.000, 0.000, 0.000, 19:08:13.128, 1560874093128
243, 8375.94, 13554.37, 5469.65, 18052.19, 6537.24, 10958.57, 21386.44, 21566.64, 0.000, 0.000, 0.000, 19:08:13.128, 1560874093128
244, 8352.73, 13546.03, 5439.99, 18043.54, 6520.56, 10944.78, 21360.51, 21489.66, 0.000, 0.000, 0.000, 19:08:13.128, 1560874093128
245, 8375.80, 13573.61, 5469.52, 18055.47, 6507.22, 10890.80, 21379.31, 21481.19, 0.006, 0.054, -1.032, 19:08:13.128, 1560874093128
246, 8413.71, 13599.70, 5509.70, 18069.48, 6511.53, 10868.76, 21409.06, 21522.58, 0.000, 0.000, 0.000, 19:08:13.128, 1560874093128
247, 8408.86, 13592.74, 5514.91, 18067.81, 6534.44, 10913.08, 21412.48, 21569.92, 0.000, 0.000, 0.000, 19:08:13.128, 1560874093128
248, 8371.91, 13557.50, 5475.55, 18049.21, 6541.48, 10958.23, 21384.43, 21558.35, 0.000, 0.000, 0.000, 19:08:13.128, 1560874093128
249, 8357.94, 13554.46, 5455.90, 18052.21, 6538.20, 10956.40, 21367.35, 21497.10, 0.000, 0.000, 0.000, 19:08:13.128, 1560874093128
250, 8386.98, 13588.61, 5489.86, 18072.44, 6532.50, 10909.95, 21393.26, 21495.29, 0.000, 0.000, 0.000, 19:08:13.128, 1560874093128
251, 8419.79, 13611.61, 5521.28, 18080.86, 6529.46, 10878.79, 21419.25, 21531.12, 0.000, 0.000, 0.000, 19:08:13.129, 1560874093129
252, 8419.99, 13591.83, 5511.54, 18070.11, 6536.43, 10912.19, 21415.45, 21571.02, 0.000, 0.000, 0.000, 19:08:13.129, 1560874093129
253, 8388.23, 13555.28, 5472.96, 18048.32, 6537.13, 10958.37, 21387.78, 21557.88, 0.000, 0.000, 0.000, 19:08:13.129, 1560874093129
254, 8364.98, 13554.41, 5457.40, 18048.90, 6532.36, 10962.17, 21373.27, 21502.71, 0.000, 0.000, 0.000, 19:08:13.129, 1560874093129
255, 8383.38, 13582.46, 5482.88, 18061.91, 6517.23, 10909.73, 21389.08, 21492.97, 0.006, 0.052, -1.034, 19:08:13.129, 1560874093129
0, 8414.74, 13609.82, 5519.18, 18077.26, 6520.63, 10880.78, 21417.64, 21530.14, 0.000, 0.000, 0.000, 19:08:13.129, 1560874093129
1, 8413.17, 13595.07, 5515.09, 18073.26, 6537.39, 10917.55, 21420.06, 21576.52, 0.000, 0.000, 0.000, 19:08:13.129, 1560874093129
2, 8379.65, 13560.31, 5469.94, 18052.14, 6538.44, 10958.21, 21389.43, 21563.60, 0.000, 0.000, 0.000, 19:08:13.129, 1560874093129
3, 8360.96, 13553.96, 5448.13, 18049.66, 6529.44, 10950.48, 21369.90, 21502.13, 0.000, 0.000, 0.000, 19:08:13.129, 1560874093129
4, 8379.87, 13576.49, 5475.42, 18059.00, 6515.00, 10893.70, 21385.90, 21490.60, 0.000, 0.000, 0.000, 19:08:13.129, 1560874093129
5, 8408.84, 13607.41, 5509.59, 18069.69, 6513.30, 10864.42, 21411.92, 21526.16, 0.000, 0.000, 0.000, 19:08:13.129, 1560874093129
6, 8406.78, 13591.40, 5507.09, 18062.85, 6530.33, 10904.79, 21415.63, 21573.10, 0.000, 0.000, 0.000, 19:08:13.129, 1560874093129
7, 8380.52, 13556.40, 5470.43, 18046.64, 6537.28, 10955.82, 21389.75, 21563.60, 0.000, 0.000, 0.000, 19:08:13.129, 1560874093129
8, 8367.64, 13557.14, 5455.21, 18050.66, 6533.82, 10958.79, 21374.39, 21503.41, 0.010, 0.054, -1.032, 19:08:13.130, 1560874093130
9, 8393.75, 13581.90, 5478.05, 18059.20, 6515.40, 10902.42, 21387.22, 21489.50, 0.000, 0.000, 0.000, 19:08:13.131, 1560874093131
10, 8418.96, 13609.26, 5520.86, 18076.26, 6521.61, 10871.98, 21414.74, 21526.88, 0.000, 0.000, 0.000, 19:08:13.131, 1560874093131
11, 8429.25, 13602.58, 5524.32, 18077.89, 6544.23, 10913.24, 21422.67, 21576.88, 0.000, 0.000, 0.000, 19:08:13.131, 1560874093131
12, 8390.80, 13570.57, 5484.60, 18056.61, 6549.78, 10955.26, 21395.65, 21563.91, 0.000, 0.000, 0.000, 19:08:13.131, 1560874093131
13, 8355.91, 13562.26, 5460.64, 18048.43, 6539.63, 10951.28, 21372.29, 21500.66, 0.000, 0.000, 0.000, 19:08:13.131, 1560874093131
14, 8380.90, 13586.66, 5488.05, 18062.62, 6527.94, 10903.72, 21391.54, 21492.16, 0.000, 0.000, 0.000, 19:08:13.131, 1560874093131
15, 8418.99, 13614.80, 5524.66, 18079.72, 6528.52, 10877.41, 21420.64, 21528.78, 0.000, 0.000, 0.000, 19:08:13.131, 1560874093131
16, 8416.86, 13598.96, 5520.28, 18076.55, 6542.33, 10913.13, 21421.89, 21573.54, 0.000, 0.000, 0.000, 19:08:13.131, 1560874093131
17, 8380.14, 13563.40, 5475.37, 18059.61, 6544.41, 10957.36, 21397.08, 21565.10, 0.000, 0.000, 0.000, 19:08:13.131, 1560874093131
18, 8363.37, 13559.19, 5452.48, 18060.95, 6536.41, 10957.52, 21379.87, 21505.60, 0.008, 0.058, -1.032, 19:08:13.131, 1560874093131
19, 8385.28, 13586.64, 5479.51, 18071.99, 6522.86, 10906.40, 21392.65, 21492.52, 0.000, 0.000, 0.000, 19:08:13.131, 1560874093131
20, 8416.08, 13612.75, 5515.27, 18081.73, 6522.69, 10875.22, 21415.85, 21525.80, 0.000, 0.000, 0.000, 19:08:13.131, 1560874093131
21, 8417.49, 13606.78, 5519.41, 18082.96, 6545.31, 10919.63, 21423.77, 21576.05, 0.000, 0.000, 0.000, 19:08:13.131, 1560874093131
22, 8391.47, 13575.40, 5478.23, 18064.81, 6548.28, 10965.34, 21393.90, 21565.77, 0.000, 0.000, 0.000, 19:08:13.131, 1560874093131
23, 8375.11, 13562.21, 5452.62, 18055.27, 6535.38, 10957.25, 21369.47, 21499.65, 0.000, 0.000, 0.000, 19:08:13.131, 1560874093131
24, 8386.17, 13578.21, 5480.00, 18064.81, 6520.54, 10904.43, 21385.93, 21487.85, 0.000, 0.000, 0.000, 19:08:13.132, 1560874093132
25, 8419.52, 13607.56, 5519.38, 18079.05, 6522.84, 10875.67, 21417.40, 21526.41, 0.000, 0.000, 0.000, 19:08:13.132, 1560874093132
26, 8417.51, 13607.43, 5521.06, 18081.46, 6544.57, 10919.07, 21427.03, 21578.89, 0.000, 0.000, 0.000, 19:08:13.132, 1560874093132
27, 8383.09, 13567.98, 5479.33, 18061.17, 6548.81, 10962.37, 21398.96, 21571.36, 0.000, 0.000, 0.000, 19:08:13.132, 1560874093132
28, 8365.23, 13555.53, 5453.85, 18055.98, 6539.18, 10958.46, 21372.74, 21505.42, 0.008, 0.054, -1.034, 19:08:13.132, 1560874093132
29, 8389.26, 13589.14, 5484.36, 18069.11, 6527.58, 10908.86, 21391.00, 21496.30, 0.000, 0.000, 0.000, 19:08:13.132, 1560874093132
30, 8416.59, 13613.53, 5515.16, 18080.73, 6524.07, 10875.75, 21420.19, 21532.35, 0.000, 0.000, 0.000, 19:08:13.132, 1560874093132
31, 8418.76, 13601.77, 5513.64, 18077.96, 6539.94, 10914.04, 21424.84, 21579.33, 0.000, 0.000, 0.000, 19:08:13.132, 1560874093132
32, 8395.40, 13566.17, 5476.87, 18058.89, 6544.48, 10959.15, 21397.23, 21572.58, 0.000, 0.000, 0.000, 19:08:13.132, 1560874093132
33, 8368.67, 13554.68, 5453.40, 18053.26, 6532.83, 10953.72, 21374.79, 21507.85, 0.000, 0.000, 0.000, 19:08:13.132, 1560874093132
34, 8382.31, 13584.67, 5482.95, 18067.23, 6520.47, 10903.47, 21392.76, 21496.63, 0.000, 0.000, 0.000, 19:08:13.132, 1560874093132
35, 8413.26, 13611.23, 5514.64, 18077.29, 6520.34, 10870.79, 21420.73, 21532.24, 0.000, 0.000, 0.000, 19:08:13.133, 1560874093133
36, 8410.60, 13595.96, 5513.04, 18073.35, 6538.73, 10906.80, 21423.90, 21576.94, 0.000, 0.000, 0.000, 19:08:13.133, 1560874093133
37, 8376.41, 13559.93, 5474.01, 18054.64, 6544.01, 10952.89, 21395.38, 21568.23, 0.000, 0.000, 0.000, 19:08:13.133, 1560874093133
38, 8360.71, 13552.44, 5450.32, 18051.22, 6536.01, 10952.42, 21375.15, 21506.60, 0.006, 0.054, -1.028, 19:08:13.133, 1560874093133
39, 8384.59, 13575.98, 5476.94, 18066.29, 6522.71, 10901.04, 21391.24, 21494.82, 0.000, 0.000, 0.000, 19:08:13.133, 1560874093133
40, 8421.22, 13614.11, 5518.85, 18084.62, 6525.90, 10872.42, 21421.46, 21531.86, 0.000, 0.000, 0.000, 19:08:13.133, 1560874093133
41, 8417.26, 13607.03, 5519.83, 18082.87, 6542.00, 10908.52, 21421.62, 21574.37, 0.000, 0.000, 0.000, 19:08:13.133, 1560874093133
42, 8383.56, 13567.13, 5480.09, 18063.27, 6547.61, 10953.85, 21392.90, 21563.53, 0.000, 0.000, 0.000, 19:08:13.133, 1560874093133
43, 8370.82, 13559.82, 5457.36, 18060.83, 6538.47, 10958.63, 21372.94, 21502.67, 0.000, 0.000, 0.000, 19:08:13.133, 1560874093133
44, 8385.12, 13583.02, 5484.98, 18071.03, 6525.61, 10910.49, 21387.49, 21491.20, 0.000, 0.000, 0.000, 19:08:13.133, 1560874093133
45, 8413.11, 13609.35, 5517.95, 18080.39, 6520.92, 10879.17, 21415.07, 21529.06, 0.000, 0.000, 0.000, 19:08:13.133, 1560874093133
46, 8412.50, 13599.85, 5516.83, 18076.66, 6535.87, 10916.23, 21416.77, 21573.99, 0.000, 0.000, 0.000, 19:08:13.133, 1560874093133
47, 8382.57, 13564.36, 5479.22, 18058.49, 6540.99, 10958.97, 21389.41, 21563.98, 0.000, 0.000, 0.000, 19:08:13.133, 1560874093133
48, 8367.58, 13560.38, 5457.69, 18058.15, 6536.14, 10958.50, 21372.83, 21504.93, 0.014, 0.054, -1.030, 19:08:13.133, 1560874093133
49, 8386.58, 13582.77, 5481.12, 18069.11, 6521.26, 10907.16, 21387.11, 21491.02, 0.000, 0.000, 0.000, 19:08:13.133, 1560874093133
50, 8422.45, 13611.59, 5515.18, 18082.87, 6522.64, 10877.01, 21416.93, 21528.57, 0.000, 0.000, 0.000, 19:08:13.134, 1560874093134
51, 8427.28, 13600.88, 5511.45, 18079.19, 6541.26, 10914.83, 21419.88, 21571.71, 0.000, 0.000, 0.000, 19:08:13.134, 1560874093134
52, 8381.32, 13566.88, 5479.06, 18060.16, 6551.61, 10964.47, 21393.28, 21566.55, 0.000, 0.000, 0.000, 19:08:13.134, 1560874093134
53, 8363.75, 13557.96, 5458.94, 18054.91, 6545.17, 10964.13, 21371.82, 21505.26, 0.000, 0.000, 0.000, 19:08:13.134, 1560874093134
54, 8383.98, 13581.88, 5482.61, 18065.37, 6530.75, 10914.45, 21386.86, 21490.02, 0.000, 0.000, 0.000, 19:08:13.134, 1560874093134
55, 8415.79, 13614.42, 5521.53, 18082.78, 6531.31, 10886.73, 21417.02, 21527.66, 0.000, 0.000, 0.000, 19:08:13.134, 1560874093134
56, 8415.95, 13605.42, 5519.90, 18078.60, 6544.32, 10921.87, 21419.99, 21574.22, 0.000, 0.000, 0.000, 19:08:13.134, 1560874093134
57, 8385.46, 13568.25, 5484.60, 18063.07, 6550.74, 10969.41, 21392.07, 21565.54, 0.000, 0.000, 0.000, 19:08:13.134, 1560874093134
58, 8368.00, 13563.55, 5466.21, 18064.57, 6546.31, 10970.28, 21373.65, 21505.30, 0.014, 0.058, -1.034, 19:08:13.134, 1560874093134
59, 8390.11, 13588.21, 5488.65, 18077.96, 6534.29, 10922.00, 21391.83, 21495.43, 0.000, 0.000, 0.000, 19:08:13.134, 1560874093134
60, 8421.76, 13606.24, 5516.39, 18082.09, 6526.19, 10880.11, 21413.64, 21524.82, 0.000, 0.000, 0.000, 19:08:13.134, 1560874093134
61, 8418.00, 13595.81, 5519.45, 18079.19, 6542.80, 10913.46, 21417.87, 21571.33, 0.000, 0.000, 0.000, 19:08:13.134, 1560874093134
62, 8379.89, 13558.95, 5485.05, 18061.39, 6548.52, 10962.10, 21391.71, 21566.82, 0.000, 0.000, 0.000, 19:08:13.134, 1560874093134
63, 8366.73, 13550.10, 5461.29, 18055.16, 6539.20, 10961.88, 21369.29, 21503.36, 0.000, 0.000, 0.000, 19:08:13.134, 1560874093134
