%OpenBCI Raw EEG Data
%Number of channels = 8
%Sample Rate = 250.0 Hz
%First Column = SampleIndex
%Last Column = Timestamp 
%Other Columns = EEG data in microvolts followed by Accel Data (in G) interleaved with Aux Data
0, -3690.52, 5513.33, 10538.56, 10534.22, 10656.55, -3575.81, -3716.09, 4309.53, -0.006, -0.022, 1.020, 20:31:37.357, 1559237497357
1, -3689.65, 5517.26, 10540.90, 10536.70, 10658.65, -3577.08, -3717.65, 4310.67, 0.000, 0.000, 0.000, 20:31:37.838, 1559237497838
2, -3689.04, 5518.71, 10540.97, 10536.72, 10658.50, -3577.78, -3716.85, 4310.98, 0.000, 0.000, 0.000, 20:31:37.838, 1559237497838
3, -3688.10, 5513.30, 10535.27, 10530.87, 10652.91, -3579.63, -3716.67, 4312.70, 0.000, 0.000, 0.000, 20:31:37.838, 1559237497838
4, -3689.24, 5510.11, 10533.84, 10529.35, 10651.43, -3577.26, -3717.52, 4310.71, 0.000, 0.000, 0.000, 20:31:37.838, 1559237497838
5, -3690.65, 5514.64, 10538.71, 10534.00, 10655.86, -3575.83, -3717.12, 4310.29, 0.000, 0.000, 0.000, 20:31:37.838, 1559237497838
6, -3689.40, 5516.14, 10540.81, 10535.96, 10657.74, -3576.44, -3717.81, 4311.29, 0.000, 0.000, 0.000, 20:31:37.838, 1559237497838
7, -3690.25, 5518.40, 10540.17, 10535.56, 10657.24, -3578.38, -3717.52, 4312.84, -0.004, -0.022, 1.022, 20:31:37.838, 1559237497838
8, -3691.97, 5514.00, 10535.11, 10530.78, 10652.53, -3578.58, -3717.70, 4317.15, 0.000, 0.000, 0.000, 20:31:37.838, 1559237497838
9, -3691.93, 5511.72, 10534.13, 10529.77, 10651.59, -3578.09, -3719.20, 4314.53, 0.000, 0.000, 0.000, 20:31:37.839, 1559237497839
10, -3691.70, 5515.49, 10538.89, 10534.56, 10656.26, -3578.27, -3715.46, 4311.32, 0.000, 0.000, 0.000, 20:31:37.839, 1559237497839
11, -3690.81, 5518.29, 10540.88, 10536.46, 10657.89, -3577.51, -3715.37, 4310.96, 0.000, 0.000, 0.000, 20:31:37.839, 1559237497839
12, -3691.61, 5520.50, 10541.02, 10536.72, 10658.03, -3575.83, -3715.22, 4313.71, 0.000, 0.000, 0.000, 20:31:37.839, 1559237497839
13, -3689.60, 5515.16, 10536.23, 10531.85, 10653.53, -3573.46, -3714.90, 4313.80, 0.000, 0.000, 0.000, 20:31:37.839, 1559237497839
14, -3688.62, 5512.66, 10534.40, 10530.20, 10651.83, -3575.99, -3718.46, 4312.01, 0.000, 0.000, 0.000, 20:31:37.839, 1559237497839
15, -3690.30, 5516.05, 10538.47, 10534.42, 10655.81, -3576.39, -3716.74, 4308.70, 0.000, 0.000, 0.000, 20:31:37.839, 1559237497839
16, -3691.88, 5518.78, 10541.04, 10537.13, 10658.45, -3577.15, -3715.89, 4310.27, 0.000, 0.000, 0.000, 20:31:37.839, 1559237497839
17, -3690.72, 5521.44, 10541.06, 10536.95, 10658.09, -3579.16, -3715.66, 4312.95, -0.004, -0.024, 1.020, 20:31:37.839, 1559237497839
18, -3689.18, 5515.16, 10535.90, 10531.47, 10652.66, -3577.46, -3718.53, 4313.17, 0.000, 0.000, 0.000, 20:31:37.839, 1559237497839
19, -3690.74, 5511.14, 10534.24, 10529.77, 10651.12, -3576.21, -3719.53, 4310.06, 0.000, 0.000, 0.000, 20:31:37.839, 1559237497839
20, -3688.02, 5514.47, 10538.87, 10534.53, 10655.84, -3575.25, -3718.41, 4309.17, 0.000, 0.000, 0.000, 20:31:37.839, 1559237497839
21, -3687.46, 5518.51, 10541.48, 10537.19, 10658.50, -3576.28, -3718.99, 4311.16, 0.000, 0.000, 0.000, 20:31:37.839, 1559237497839
22, -3689.38, 5520.39, 10541.13, 10536.52, 10657.94, -3575.14, -3717.81, 4312.86, 0.000, 0.000, 0.000, 20:31:37.839, 1559237497839
23, -3689.29, 5515.45, 10535.41, 10530.87, 10652.37, -3577.31, -3715.93, 4312.50, 0.000, 0.000, 0.000, 20:31:37.840, 1559237497840
24, -3689.67, 5513.17, 10533.88, 10529.62, 10650.78, -3577.15, -3718.30, 4312.12, 0.000, 0.000, 0.000, 20:31:37.840, 1559237497840
25, -3691.06, 5515.58, 10537.68, 10533.39, 10654.56, -3576.59, -3717.36, 4311.45, 0.000, 0.000, 0.000, 20:31:37.840, 1559237497840
26, -3691.39, 5518.33, 10540.30, 10536.12, 10656.95, -3576.84, -3716.80, 4308.83, 0.000, 0.000, 0.000, 20:31:37.840, 1559237497840
27, -3691.75, 5521.28, 10540.99, 10536.97, 10657.60, -3575.54, -3717.90, 4309.66, -0.004, -0.026, 1.018, 20:31:37.840, 1559237497840
28, -3691.19, 5514.96, 10535.79, 10531.67, 10652.57, -3575.21, -3717.85, 4314.83, 0.000, 0.000, 0.000, 20:31:37.840, 1559237497840
29, -3688.42, 5511.67, 10533.55, 10529.55, 10650.70, -3575.63, -3718.75, 4314.65, 0.000, 0.000, 0.000, 20:31:37.840, 1559237497840
30, -3689.74, 5514.82, 10537.95, 10533.86, 10654.83, -3578.07, -3716.13, 4311.67, 0.000, 0.000, 0.000, 20:31:37.840, 1559237497840
31, -3689.92, 5518.29, 10540.37, 10536.21, 10656.78, -3576.59, -3713.45, 4311.32, 0.000, 0.000, 0.000, 20:31:37.840, 1559237497840
32, -3689.76, 5521.93, 10539.74, 10535.58, 10655.93, -3574.96, -3715.69, 4312.01, 0.000, 0.000, 0.000, 20:31:37.840, 1559237497840
33, -3691.48, 5516.21, 10534.78, 10530.87, 10651.46, -3577.15, -3718.91, 4314.29, 0.000, 0.000, 0.000, 20:31:37.840, 1559237497840
34, -3691.03, 5511.81, 10533.44, 10529.68, 10650.52, -3576.66, -3717.63, 4312.03, 0.000, 0.000, 0.000, 20:31:37.840, 1559237497840
35, -3689.65, 5515.67, 10538.15, 10534.24, 10655.10, -3576.41, -3716.74, 4310.18, 0.000, 0.000, 0.000, 20:31:37.840, 1559237497840
36, -3689.98, 5520.08, 10540.61, 10536.61, 10657.18, -3576.32, -3719.55, 4310.71, -0.004, -0.024, 1.018, 20:31:37.841, 1559237497841
37, -3691.32, 5521.10, 10540.01, 10535.94, 10656.15, -3577.78, -3719.04, 4311.29, 0.000, 0.000, 0.000, 20:31:37.844, 1559237497844
38, -3691.55, 5514.94, 10535.36, 10531.05, 10651.70, -3578.45, -3717.54, 4314.40, 0.000, 0.000, 0.000, 20:31:37.844, 1559237497844
39, -3689.85, 5513.12, 10534.22, 10529.95, 10651.43, -3575.47, -3718.26, 4312.79, 0.000, 0.000, 0.000, 20:31:37.844, 1559237497844
40, -3691.03, 5515.99, 10538.53, 10534.18, 10655.59, -3575.21, -3719.29, 4309.82, 0.000, 0.000, 0.000, 20:31:37.844, 1559237497844
41, -3688.93, 5520.01, 10541.08, 10536.99, 10658.03, -3577.06, -3716.96, 4310.96, 0.000, 0.000, 0.000, 20:31:37.844, 1559237497844
42, -3689.09, 5521.19, 10541.28, 10537.01, 10657.92, -3577.64, -3715.17, 4312.57, 0.000, 0.000, 0.000, 20:31:37.844, 1559237497844
43, -3690.07, 5515.00, 10536.23, 10532.10, 10652.86, -3575.83, -3717.09, 4315.29, 0.000, 0.000, 0.000, 20:31:37.844, 1559237497844
44, -3689.49, 5514.35, 10534.44, 10530.62, 10651.46, -3575.36, -3717.23, 4313.24, 0.000, 0.000, 0.000, 20:31:37.844, 1559237497844
45, -3688.69, 5516.63, 10538.51, 10534.67, 10655.28, -3576.41, -3716.25, 4311.45, 0.000, 0.000, 0.000, 20:31:37.844, 1559237497844
46, -3690.14, 5519.85, 10540.81, 10536.86, 10657.40, -3576.93, -3715.51, 4311.07, -0.004, -0.022, 1.026, 20:31:37.844, 1559237497844
47, -3688.28, 5522.80, 10540.61, 10536.52, 10656.84, -3575.59, -3716.18, 4310.06, 0.000, 0.000, 0.000, 20:31:37.845, 1559237497845
48, -3691.19, 5517.28, 10535.23, 10531.25, 10651.61, -3576.99, -3716.69, 4312.79, 0.000, 0.000, 0.000, 20:31:37.845, 1559237497845
49, -3690.63, 5515.00, 10534.18, 10530.33, 10650.54, -3576.88, -3715.89, 4311.63, 0.000, 0.000, 0.000, 20:31:37.845, 1559237497845
50, -3689.58, 5516.81, 10538.58, 10534.73, 10654.83, -3576.55, -3716.25, 4311.29, 0.000, 0.000, 0.000, 20:31:37.845, 1559237497845
51, -3690.09, 5521.19, 10541.37, 10537.48, 10657.67, -3577.71, -3719.51, 4311.94, 0.000, 0.000, 0.000, 20:31:37.845, 1559237497845
52, -3689.54, 5523.14, 10540.95, 10536.84, 10656.91, -3576.77, -3718.59, 4310.67, 0.000, 0.000, 0.000, 20:31:37.845, 1559237497845
53, -3689.69, 5516.10, 10535.18, 10531.23, 10651.41, -3577.75, -3717.21, 4312.34, 0.000, 0.000, 0.000, 20:31:37.845, 1559237497845
54, -3690.18, 5513.42, 10533.50, 10529.64, 10649.96, -3575.36, -3716.74, 4310.49, 0.000, 0.000, 0.000, 20:31:37.845, 1559237497845
55, -3690.90, 5516.61, 10538.13, 10534.22, 10654.27, -3576.21, -3717.88, 4310.13, 0.000, 0.000, 0.000, 20:31:37.845, 1559237497845
56, -3693.31, 5519.96, 10540.72, 10536.84, 10656.78, -3575.76, -3715.66, 4311.23, -0.006, -0.024, 1.024, 20:31:37.845, 1559237497845
57, -3691.86, 5523.29, 10540.99, 10536.99, 10656.89, -3575.14, -3716.04, 4311.70, 0.000, 0.000, 0.000, 20:31:37.845, 1559237497845
58, -3691.32, 5517.91, 10536.08, 10531.90, 10652.26, -3575.97, -3718.64, 4313.71, 0.000, 0.000, 0.000, 20:31:37.845, 1559237497845
59, -3691.12, 5515.43, 10534.73, 10530.53, 10651.34, -3574.92, -3718.23, 4313.64, 0.000, 0.000, 0.000, 20:31:37.845, 1559237497845
60, -3690.41, 5517.89, 10538.60, 10534.53, 10655.05, -3576.08, -3716.02, 4311.41, 0.000, 0.000, 0.000, 20:31:37.845, 1559237497845
61, -3689.85, 5520.75, 10540.95, 10536.75, 10656.93, -3575.09, -3716.78, 4309.30, 0.000, 0.000, 0.000, 20:31:37.845, 1559237497845
62, -3692.71, 5523.09, 10540.81, 10536.48, 10656.73, -3575.18, -3718.28, 4311.88, 0.000, 0.000, 0.000, 20:31:37.846, 1559237497846
63, -3690.90, 5516.21, 10535.45, 10531.34, 10651.75, -3578.22, -3717.68, 4315.85, 0.000, 0.000, 0.000, 20:31:37.846, 1559237497846
64, -3689.49, 5513.12, 10532.99, 10529.08, 10649.51, -3576.41, -3718.53, 4313.51, 0.000, 0.000, 0.000, 20:31:37.846, 1559237497846
65, -3691.55, 5516.75, 10537.26, 10533.28, 10653.49, -3575.72, -3717.50, 4310.62, 0.000, 0.000, 0.000, 20:31:37.846, 1559237497846
66, -3690.76, 5520.34, 10540.43, 10536.48, 10656.60, -3576.93, -3716.78, 4310.69, -0.008, -0.022, 1.024, 20:31:37.846, 1559237497846
67, -3689.87, 5522.42, 10540.84, 10536.70, 10656.86, -3575.30, -3717.52, 4312.48, 0.000, 0.000, 0.000, 20:31:37.846, 1559237497846
68, -3690.52, 5515.78, 10535.32, 10531.11, 10651.41, -3576.64, -3717.90, 4313.69, 0.000, 0.000, 0.000, 20:31:37.846, 1559237497846
69, -3692.04, 5514.31, 10533.39, 10529.46, 10649.78, -3578.07, -3716.80, 4311.72, 0.000, 0.000, 0.000, 20:31:37.847, 1559237497847
70, -3689.51, 5518.53, 10537.75, 10533.88, 10654.14, -3575.59, -3717.34, 4311.45, 0.000, 0.000, 0.000, 20:31:37.847, 1559237497847
71, -3688.82, 5521.24, 10541.22, 10536.79, 10657.04, -3573.98, -3716.16, 4312.59, 0.000, 0.000, 0.000, 20:31:37.847, 1559237497847
72, -3690.07, 5522.53, 10541.06, 10536.28, 10656.48, -3574.67, -3716.40, 4313.24, 0.000, 0.000, 0.000, 20:31:37.847, 1559237497847
73, -3689.54, 5518.51, 10536.12, 10531.36, 10651.88, -3577.49, -3718.08, 4313.53, 0.000, 0.000, 0.000, 20:31:37.847, 1559237497847
74, -3690.72, 5515.14, 10534.18, 10529.93, 10650.47, -3579.10, -3713.59, 4310.82, 0.000, 0.000, 0.000, 20:31:37.847, 1559237497847
75, -3689.96, 5517.64, 10538.20, 10534.22, 10654.41, -3576.73, -3714.39, 4310.76, 0.000, 0.000, 0.000, 20:31:37.847, 1559237497847
76, -3689.58, 5521.98, 10540.28, 10536.01, 10656.24, -3575.88, -3715.78, 4309.60, -0.004, -0.026, 1.020, 20:31:37.847, 1559237497847
77, -3690.56, 5523.23, 10540.37, 10535.96, 10656.17, -3577.60, -3716.18, 4311.83, 0.000, 0.000, 0.000, 20:31:37.847, 1559237497847
78, -3689.65, 5517.21, 10536.32, 10531.90, 10652.21, -3575.63, -3719.64, 4314.67, 0.000, 0.000, 0.000, 20:31:37.848, 1559237497848
79, -3689.00, 5512.92, 10534.06, 10530.00, 10650.20, -3574.71, -3717.30, 4313.57, 0.000, 0.000, 0.000, 20:31:37.848, 1559237497848
80, -3690.41, 5516.21, 10537.71, 10533.91, 10653.85, -3575.92, -3716.18, 4312.28, 0.000, 0.000, 0.000, 20:31:37.848, 1559237497848
81, -3689.29, 5519.27, 10540.03, 10536.01, 10655.99, -3574.63, -3715.11, 4311.99, 0.000, 0.000, 0.000, 20:31:37.848, 1559237497848
82, -3687.99, 5523.90, 10540.50, 10536.34, 10656.24, -3575.65, -3715.96, 4312.72, 0.000, 0.000, 0.000, 20:31:37.848, 1559237497848
83, -3688.13, 5518.06, 10535.49, 10531.27, 10651.48, -3578.51, -3717.99, 4312.46, 0.000, 0.000, 0.000, 20:31:37.848, 1559237497848
84, -3689.85, 5514.64, 10533.48, 10529.55, 10649.78, -3577.20, -3717.43, 4311.79, 0.000, 0.000, 0.000, 20:31:37.848, 1559237497848
85, -3688.46, 5518.09, 10537.93, 10534.22, 10654.27, -3577.13, -3718.26, 4311.96, 0.000, 0.000, 0.000, 20:31:37.848, 1559237497848
86, -3688.08, 5520.32, 10539.63, 10535.74, 10655.72, -3577.46, -3717.05, 4311.23, -0.004, -0.030, 1.016, 20:31:37.848, 1559237497848
87, -3691.10, 5521.17, 10539.99, 10536.14, 10655.88, -3577.28, -3715.80, 4310.71, 0.000, 0.000, 0.000, 20:31:37.848, 1559237497848
88, -3691.39, 5516.25, 10536.01, 10532.16, 10652.30, -3573.95, -3716.22, 4312.28, 0.000, 0.000, 0.000, 20:31:37.848, 1559237497848
89, -3690.16, 5513.68, 10534.11, 10530.35, 10650.72, -3575.61, -3716.69, 4312.84, 0.000, 0.000, 0.000, 20:31:37.848, 1559237497848
90, -3688.73, 5516.83, 10538.27, 10534.35, 10654.72, -3576.14, -3714.66, 4313.10, 0.000, 0.000, 0.000, 20:31:37.849, 1559237497849
91, -3689.51, 5520.75, 10540.84, 10537.13, 10656.95, -3577.11, -3717.63, 4311.58, 0.000, 0.000, 0.000, 20:31:37.849, 1559237497849
92, -3690.09, 5523.25, 10540.77, 10537.15, 10656.53, -3577.22, -3719.26, 4312.30, 0.000, 0.000, 0.000, 20:31:37.849, 1559237497849
93, -3690.81, 5517.93, 10536.23, 10532.37, 10652.30, -3576.75, -3719.26, 4315.07, 0.000, 0.000, 0.000, 20:31:37.849, 1559237497849
94, -3690.25, 5514.31, 10534.31, 10530.17, 10650.90, -3575.85, -3716.78, 4314.00, 0.000, 0.000, 0.000, 20:31:37.849, 1559237497849
95, -3688.04, 5516.81, 10538.15, 10533.91, 10654.88, -3576.73, -3716.58, 4311.11, 0.000, 0.000, 0.000, 20:31:37.849, 1559237497849
96, -3688.26, 5520.05, 10540.66, 10536.52, 10657.02, -3576.68, -3717.45, 4312.23, -0.004, -0.028, 1.014, 20:31:37.849, 1559237497849
97, -3689.47, 5521.86, 10540.70, 10536.30, 10656.89, -3576.66, -3716.65, 4312.81, 0.000, 0.000, 0.000, 20:31:37.849, 1559237497849
98, -3688.84, 5516.48, 10535.90, 10531.56, 10652.39, -3577.24, -3717.88, 4316.10, 0.000, 0.000, 0.000, 20:31:37.849, 1559237497849
99, -3689.51, 5512.52, 10533.97, 10529.62, 10650.63, -3577.55, -3716.25, 4313.80, 0.000, 0.000, 0.000, 20:31:37.849, 1559237497849
100, -3689.78, 5516.03, 10537.60, 10533.21, 10654.14, -3577.78, -3717.07, 4310.31, 0.000, 0.000, 0.000, 20:31:37.849, 1559237497849
101, -3686.79, 5519.94, 10540.46, 10535.99, 10656.66, -3579.65, -3716.96, 4312.01, 0.000, 0.000, 0.000, 20:31:37.850, 1559237497850
102, -3686.90, 5522.49, 10540.84, 10536.41, 10656.93, -3576.44, -3714.44, 4312.37, 0.000, 0.000, 0.000, 20:31:37.850, 1559237497850
103, -3685.78, 5515.96, 10535.70, 10531.20, 10652.13, -3576.30, -3715.24, 4311.58, 0.000, 0.000, 0.000, 20:31:37.850, 1559237497850
104, -3688.28, 5512.14, 10534.02, 10529.64, 10650.40, -3578.18, -3716.58, 4313.31, 0.000, 0.000, 0.000, 20:31:37.850, 1559237497850
105, -3690.21, 5516.01, 10538.27, 10534.00, 10654.50, -3575.88, -3716.27, 4311.74, 0.000, 0.000, 0.000, 20:31:37.850, 1559237497850
106, -3688.28, 5518.38, 10540.50, 10535.92, 10656.48, -3576.26, -3715.84, 4310.73, 0.000, -0.028, 1.020, 20:31:37.850, 1559237497850
107, -3688.10, 5521.39, 10541.06, 10536.46, 10656.95, -3578.09, -3716.89, 4312.05, 0.000, 0.000, 0.000, 20:31:37.850, 1559237497850
108, -3690.21, 5517.21, 10536.95, 10532.54, 10653.20, -3578.45, -3718.23, 4313.31, 0.000, 0.000, 0.000, 20:31:37.850, 1559237497850
109, -3690.79, 5514.09, 10534.64, 10530.42, 10651.34, -3576.79, -3716.27, 4313.66, 0.000, 0.000, 0.000, 20:31:37.850, 1559237497850
110, -3690.09, 5516.57, 10538.04, 10533.68, 10654.52, -3578.83, -3714.84, 4310.11, 0.000, 0.000, 0.000, 20:31:37.850, 1559237497850
111, -3691.50, 5519.23, 10541.19, 10536.48, 10657.13, -3578.27, -3717.05, 4310.27, 0.000, 0.000, 0.000, 20:31:37.850, 1559237497850
112, -3692.28, 5523.92, 10541.55, 10536.86, 10657.65, -3575.61, -3718.99, 4312.43, 0.000, 0.000, 0.000, 20:31:37.850, 1559237497850
113, -3691.26, 5518.73, 10536.86, 10532.32, 10653.49, -3576.59, -3718.32, 4314.18, 0.000, 0.000, 0.000, 20:31:37.850, 1559237497850
114, -3689.20, 5515.61, 10535.23, 10530.64, 10651.81, -3577.22, -3715.40, 4313.19, 0.000, 0.000, 0.000, 20:31:37.851, 1559237497851
115, -3688.31, 5517.51, 10539.27, 10534.69, 10655.52, -3577.28, -3714.39, 4309.84, 0.000, 0.000, 0.000, 20:31:37.851, 1559237497851
116, -3688.57, 5520.95, 10542.27, 10537.55, 10658.50, -3574.87, -3714.44, 4309.46, -0.006, -0.030, 1.020, 20:31:37.851, 1559237497851
117, -3690.00, 5523.12, 10542.65, 10537.64, 10658.83, -3576.84, -3716.18, 4309.30, 0.000, 0.000, 0.000, 20:31:37.851, 1559237497851
118, -3689.96, 5516.81, 10537.08, 10532.16, 10653.38, -3579.21, -3717.97, 4313.51, 0.000, 0.000, 0.000, 20:31:37.851, 1559237497851
119, -3690.18, 5513.46, 10534.51, 10529.82, 10651.23, -3576.41, -3719.31, 4313.62, 0.000, 0.000, 0.000, 20:31:37.851, 1559237497851
120, -3689.76, 5516.16, 10538.76, 10534.00, 10655.08, -3574.83, -3717.59, 4310.38, 0.000, 0.000, 0.000, 20:31:37.851, 1559237497851
79, 164642.91, 97064.70, 47368.24, 47156.59, 47443.81, 142721.73, 148567.50, 15102.94, 1.032, 3.564, 3.661, 20:31:45.923, 1559237505923
32, 145598.19, 107324.00, 47152.34, 75102.15, 15084.95, 121875.38, 105653.38, 148626.78, 3.181, 1.033, 2.183, 20:31:45.939, 1559237505939
0, 29182.46, -29171.89, 34691.76, 35987.52, 43317.84, 56431.47, 42776.27, -31109.89, 0.002, -0.016, 0.508, 20:31:46.424, 1559237506424
1, 29188.23, -29335.93, 34679.82, 35981.64, 43311.33, 56372.71, 42767.18, -30844.82, 0.000, 0.000, 0.000, 20:31:46.424, 1559237506424
2, 29161.98, -29339.57, 34691.98, 35992.52, 43324.59, 56379.17, 42789.42, -31433.55, 0.000, 0.000, 0.000, 20:31:46.424, 1559237506424
3, 29156.29, -29250.95, 34698.00, 35999.70, 43328.81, 56409.18, 42795.45, -31770.48, 0.000, 0.000, 0.000, 20:31:46.425, 1559237506425
4, 29148.33, -29108.77, 34688.25, 35986.84, 43316.67, 56446.85, 42779.14, -31671.64, 0.000, 0.000, 0.000, 20:31:46.425, 1559237506425
5, 29129.17, -29229.20, 34656.13, 35959.17, 43292.18, 56397.79, 42763.56, -31107.90, 0.000, 0.000, 0.000, 20:31:46.425, 1559237506425
6, 29134.31, -29376.58, 34652.27, 35958.68, 43291.89, 56338.33, 42759.96, -30853.39, 0.000, 0.000, 0.000, 20:31:46.425, 1559237506425
7, 29133.51, -29348.20, 34679.27, 35981.86, 43314.57, 56349.53, 42766.29, -31448.61, 0.004, -0.020, 0.766, 20:31:46.425, 1559237506425
8, 29119.96, -29270.08, 34688.68, 35985.59, 43317.77, 56381.56, 42774.49, -31788.36, 0.000, 0.000, 0.000, 20:31:46.425, 1559237506425
9, 29113.37, -29120.23, 34678.98, 35978.35, 43305.45, 56425.03, 42757.90, -31689.27, 0.000, 0.000, 0.000, 20:31:46.425, 1559237506425
10, 29105.99, -29198.53, 34651.89, 35949.36, 43285.07, 56379.28, 42732.71, -31123.62, 0.000, 0.000, 0.000, 20:31:46.425, 1559237506425
11, 29106.17, -29360.51, 34638.79, 35934.45, 43277.09, 56312.63, 42734.37, -30852.25, 0.000, 0.000, 0.000, 20:31:46.425, 1559237506425
12, 29108.32, -29363.69, 34649.14, 35951.35, 43289.20, 56313.65, 42745.21, -31441.73, 0.000, 0.000, 0.000, 20:31:46.425, 1559237506425
13, 29116.68, -29267.84, 34652.00, 35953.59, 43290.41, 56341.79, 42751.73, -31772.02, 0.000, 0.000, 0.000, 20:31:46.425, 1559237506425
14, 29108.56, -29108.03, 34650.21, 35944.02, 43282.86, 56384.31, 42742.77, -31666.99, 0.000, 0.000, 0.000, 20:31:46.425, 1559237506425
15, 29105.17, -29199.02, 34630.00, 35928.86, 43267.59, 56340.50, 42711.90, -31134.35, 0.000, 0.000, 0.000, 20:31:46.425, 1559237506425
16, 29132.88, -29328.66, 34620.68, 35921.91, 43267.90, 56282.83, 42705.35, -30883.14, 0.000, 0.000, 0.000, 20:31:46.425, 1559237506425
17, 29107.45, -29338.70, 34636.26, 35939.84, 43280.64, 56288.22, 42724.02, -31471.28, 0.002, -0.020, 0.890, 20:31:46.425, 1559237506425
18, 29079.30, -29264.24, 34648.29, 35947.21, 43282.72, 56311.71, 42731.88, -31804.79, 0.000, 0.000, 0.000, 20:31:46.425, 1559237506425
19, 29086.10, -29123.99, 34635.17, 35929.73, 43267.81, 56351.83, 42735.53, -31699.76, 0.000, 0.000, 0.000, 20:31:46.425, 1559237506425
20, 29096.43, -29235.83, 34612.32, 35913.84, 43251.99, 56307.80, 42711.34, -31157.86, 0.000, 0.000, 0.000, 20:31:46.425, 1559237506425
21, 29070.41, -29403.76, 34612.59, 35920.50, 43252.97, 56250.71, 42706.09, -30900.44, 0.000, 0.000, 0.000, 20:31:46.425, 1559237506425
22, 29053.85, -29386.49, 34630.03, 35941.94, 43263.43, 56255.67, 42701.29, -31485.69, 0.000, 0.000, 0.000, 20:31:46.425, 1559237506425
23, 29057.22, -29271.31, 34637.87, 35924.59, 43267.86, 56278.85, 42700.86, -31842.12, 0.000, 0.000, 0.000, 20:31:46.425, 1559237506425
24, 29052.64, -29119.54, 34634.81, 35913.91, 43263.16, 56327.09, 42697.66, -31739.16, 0.000, 0.000, 0.000, 20:31:46.425, 1559237506425
25, 29050.58, -29232.48, 34613.44, 35903.79, 43244.01, 56285.67, 42663.29, -31214.86, 0.000, 0.000, 0.000, 20:31:46.426, 1559237506426
26, 29054.32, -29396.92, 34606.24, 35905.10, 43239.29, 56225.27, 42665.57, -30926.83, -0.004, -0.018, 0.958, 20:31:46.426, 1559237506426
27, 29055.68, -29361.18, 34618.29, 35919.83, 43249.57, 56231.27, 42677.08, -31509.03, 0.000, 0.000, 0.000, 20:31:46.426, 1559237506426
28, 29064.89, -29254.14, 34611.90, 35916.10, 43251.29, 56256.50, 42673.08, -31862.34, 0.000, 0.000, 0.000, 20:31:46.426, 1559237506426
29, 29070.39, -29102.62, 34608.73, 35904.88, 43243.45, 56306.66, 42664.25, -31759.28, 0.000, 0.000, 0.000, 20:31:46.426, 1559237506426
30, 29063.10, -29194.08, 34597.04, 35905.71, 43235.20, 56274.34, 42668.90, -31195.35, 0.000, 0.000, 0.000, 20:31:46.426, 1559237506426
31, 29041.31, -29365.30, 34579.67, 35887.18, 43223.82, 56200.73, 42656.54, -30909.15, 0.000, 0.000, 0.000, 20:31:46.426, 1559237506426
32, 29030.94, -29369.59, 34594.89, 35897.93, 43236.18, 56204.89, 42669.90, -31502.55, 0.000, 0.000, 0.000, 20:31:46.426, 1559237506426
33, 29044.26, -29271.33, 34602.36, 35904.59, 43241.84, 56233.39, 42672.72, -31844.02, 0.000, 0.000, 0.000, 20:31:46.426, 1559237506426
34, 29033.55, -29121.60, 34607.05, 35905.17, 43235.63, 56285.80, 42665.81, -31745.87, 0.000, 0.000, 0.000, 20:31:46.426, 1559237506426
35, 28997.10, -29227.54, 34584.70, 35881.28, 43213.43, 56241.14, 42637.40, -31209.92, 0.000, 0.000, 0.000, 20:31:46.426, 1559237506426
36, 29026.94, -29369.39, 34576.05, 35874.91, 43215.04, 56181.58, 42627.68, -30932.27, -0.004, -0.018, 0.986, 20:31:46.426, 1559237506426
37, 29046.22, -29342.61, 34588.72, 35891.85, 43230.93, 56192.51, 42640.71, -31515.18, 0.000, 0.000, 0.000, 20:31:46.426, 1559237506426
38, 29017.95, -29235.21, 34593.86, 35901.77, 43235.13, 56217.56, 42648.94, -31860.38, 0.000, 0.000, 0.000, 20:31:46.426, 1559237506426
39, 29033.22, -29079.30, 34592.63, 35899.89, 43220.96, 56262.54, 42642.90, -31755.01, 0.000, 0.000, 0.000, 20:31:46.426, 1559237506426
40, 29007.02, -29205.82, 34574.04, 35865.90, 43198.12, 56220.02, 42618.79, -31234.55, 0.000, 0.000, 0.000, 20:31:46.426, 1559237506426
41, 28985.27, -29370.39, 34575.04, 35866.21, 43206.08, 56159.11, 42618.74, -30965.95, 0.000, 0.000, 0.000, 20:31:46.426, 1559237506426
42, 28990.21, -29354.84, 34583.94, 35896.81, 43217.86, 56163.02, 42626.41, -31541.69, 0.000, 0.000, 0.000, 20:31:46.426, 1559237506426
43, 29005.48, -29282.66, 34578.35, 35881.46, 43214.64, 56187.95, 42630.88, -31888.65, 0.000, 0.000, 0.000, 20:31:46.426, 1559237506426
44, 29002.42, -29129.40, 34578.04, 35862.30, 43206.46, 56234.04, 42622.52, -31793.90, 0.000, 0.000, 0.000, 20:31:46.426, 1559237506426
45, 29001.03, -29211.87, 34562.93, 35858.63, 43190.86, 56195.82, 42594.45, -31260.90, 0.000, 0.000, 0.000, 20:31:46.426, 1559237506426
46, 28997.54, -29361.50, 34549.89, 35856.87, 43178.74, 56127.71, 42574.93, -30987.00, 0.000, -0.022, 1.006, 20:31:46.426, 1559237506426
47, 28987.46, -29368.94, 34561.34, 35863.95, 43186.50, 56127.64, 42582.78, -31564.55, 0.000, 0.000, 0.000, 20:31:46.427, 1559237506427
48, 28971.41, -29301.50, 34565.61, 35867.55, 43192.82, 56161.01, 42601.89, -31910.60, 0.000, 0.000, 0.000, 20:31:46.427, 1559237506427
49, 28969.29, -29124.97, 34561.99, 35861.50, 43183.55, 56213.25, 42598.82, -31808.34, 0.000, 0.000, 0.000, 20:31:46.427, 1559237506427
50, 28964.04, -29209.39, 34538.65, 35836.37, 43164.08, 56166.98, 42570.91, -31287.03, 0.000, 0.000, 0.000, 20:31:46.427, 1559237506427
51, 28961.22, -29393.10, 34524.77, 35819.12, 43155.81, 56091.07, 42558.23, -31004.13, 0.000, 0.000, 0.000, 20:31:46.427, 1559237506427
52, 28963.14, -29376.32, 34540.77, 35828.30, 43168.66, 56095.48, 42575.13, -31571.82, 0.000, 0.000, 0.000, 20:31:46.427, 1559237506427
53, 28974.25, -29280.83, 34553.63, 35839.64, 43178.27, 56128.89, 42583.83, -31929.82, 0.000, 0.000, 0.000, 20:31:46.427, 1559237506427
54, 28971.71, -29116.41, 34545.83, 35834.61, 43167.72, 56177.11, 42576.81, -31839.25, 0.000, 0.000, 0.000, 20:31:46.427, 1559237506427
55, 28960.55, -29213.19, 34521.91, 35811.98, 43149.46, 56134.46, 42553.85, -31328.34, 0.000, 0.000, 0.000, 20:31:46.428, 1559237506428
56, 28961.29, -29394.69, 34515.36, 35804.57, 43144.52, 56064.95, 42540.26, -31053.01, -0.002, -0.026, 1.018, 20:31:46.428, 1559237506428
57, 28966.83, -29369.90, 34533.78, 35822.11, 43160.28, 56070.31, 42557.16, -31617.64, 0.000, 0.000, 0.000, 20:31:46.428, 1559237506428
58, 28973.85, -29275.44, 34547.48, 35834.27, 43172.19, 56105.83, 42574.28, -31964.42, 0.000, 0.000, 0.000, 20:31:46.428, 1559237506428
59, 28963.01, -29123.34, 34540.44, 35824.86, 43161.64, 56157.79, 42564.34, -31861.81, 0.000, 0.000, 0.000, 20:31:46.428, 1559237506428
60, 28954.38, -29216.95, 34513.80, 35802.38, 43140.72, 56117.36, 42537.22, -31352.23, 0.000, 0.000, 0.000, 20:31:46.428, 1559237506428
61, 28962.29, -29389.77, 34502.78, 35794.73, 43137.95, 56050.15, 42524.39, -31071.31, 0.000, 0.000, 0.000, 20:31:46.428, 1559237506428
62, 28959.41, -29374.26, 34514.40, 35815.56, 43144.14, 56053.32, 42531.25, -31639.61, 0.000, 0.000, 0.000, 20:31:46.428, 1559237506428
63, 28970.27, -29293.41, 34521.06, 35805.32, 43150.53, 56081.98, 42545.45, -31992.68, 0.000, 0.000, 0.000, 20:31:46.428, 1559237506428
64, 28947.36, -29092.27, 34513.51, 35789.12, 43133.52, 56124.96, 42524.39, -31894.57, 0.000, 0.000, 0.000, 20:31:46.428, 1559237506428
65, 28910.06, -29202.89, 34494.84, 35764.15, 43111.73, 56080.10, 42511.86, -31391.82, 0.000, 0.000, 0.000, 20:31:46.429, 1559237506429
66, 28907.53, -29436.04, 34487.58, 35765.09, 43113.63, 56012.93, 42511.63, -31090.25, -0.002, -0.022, 1.018, 20:31:46.429, 1559237506429
67, 28921.35, -29422.43, 34498.39, 35796.38, 43132.34, 56027.17, 42521.04, -31647.57, 0.000, 0.000, 0.000, 20:31:46.429, 1559237506429
68, 28920.32, -29329.76, 34499.58, 35801.66, 43131.36, 56057.50, 42517.89, -32013.55, 0.000, 0.000, 0.000, 20:31:46.429, 1559237506429
69, 28901.27, -29159.68, 34499.43, 35786.21, 43121.27, 56104.38, 42508.32, -31926.94, 0.000, 0.000, 0.000, 20:31:46.430, 1559237506430
70, 28890.61, -29253.47, 34481.63, 35762.32, 43103.50, 56064.19, 42486.84, -31435.51, 0.000, 0.000, 0.000, 20:31:46.430, 1559237506430
71, 28896.96, -29431.93, 34472.74, 35759.37, 43100.87, 55996.77, 42481.63, -31134.44, 0.000, 0.000, 0.000, 20:31:46.430, 1559237506430
72, 28901.59, -29405.22, 34486.35, 35775.73, 43114.46, 56003.55, 42492.81, -31677.43, 0.000, 0.000, 0.000, 20:31:46.430, 1559237506430
73, 28916.38, -29330.49, 34496.59, 35787.38, 43126.97, 56040.14, 42511.03, -32051.04, 0.000, 0.000, 0.000, 20:31:46.430, 1559237506430
74, 28909.86, -29166.68, 34491.04, 35777.05, 43114.70, 56087.95, 42498.53, -31973.34, 0.000, 0.000, 0.000, 20:31:46.431, 1559237506431
75, 28881.87, -29252.38, 34463.08, 35757.71, 43091.21, 56042.35, 42455.95, -31479.01, 0.000, 0.000, 0.000, 20:31:46.431, 1559237506431
76, 28875.19, -29438.63, 34451.05, 35750.88, 43086.68, 55968.03, 42447.70, -31164.54, -0.006, -0.024, 1.012, 20:31:46.431, 1559237506431
77, 28886.77, -29417.40, 34469.36, 35753.27, 43102.52, 55972.36, 42467.31, -31714.82, 0.000, 0.000, 0.000, 20:31:46.431, 1559237506431
78, 28888.89, -29334.90, 34481.99, 35767.80, 43107.89, 56000.53, 42480.96, -32095.03, 0.000, 0.000, 0.000, 20:31:46.431, 1559237506431
79, 28875.97, -29175.75, 34470.70, 35756.22, 43092.35, 56047.11, 42465.59, -32013.66, 0.000, 0.000, 0.000, 20:31:46.431, 1559237506431
80, 28856.59, -29263.84, 34443.93, 35731.18, 43072.84, 56002.32, 42433.78, -31527.45, 0.000, 0.000, 0.000, 20:31:46.431, 1559237506431
81, 28855.59, -29474.66, 34442.61, 35729.33, 43075.99, 55929.72, 42423.30, -31220.71, 0.000, 0.000, 0.000, 20:31:46.431, 1559237506431
82, 28855.30, -29473.75, 34457.16, 35750.34, 43090.61, 55937.56, 42448.00, -31764.00, 0.000, 0.000, 0.000, 20:31:46.431, 1559237506431
83, 28875.55, -29374.93, 34469.81, 35763.66, 43099.91, 55974.51, 42470.50, -32134.30, 0.000, 0.000, 0.000, 20:31:46.431, 1559237506431
84, 28862.72, -29205.97, 34463.33, 35746.92, 43087.34, 56026.50, 42456.51, -32047.57, 0.000, 0.000, 0.000, 20:31:46.431, 1559237506431
85, 28840.99, -29298.64, 34444.66, 35720.30, 43072.46, 55989.40, 42438.29, -31543.72, 0.000, 0.000, 0.000, 20:31:46.431, 1559237506431
86, 28829.57, -29479.74, 34431.59, 35719.25, 43067.86, 55920.98, 42432.48, -31216.54, 0.000, -0.024, 1.012, 20:31:46.431, 1559237506431
87, 28832.88, -29461.41, 34439.34, 35735.48, 43073.20, 55922.97, 42439.93, -31744.44, 0.000, 0.000, 0.000, 20:31:46.432, 1559237506432
88, 28838.06, -29367.42, 34456.06, 35749.45, 43085.18, 55956.67, 42452.49, -32131.50, 0.000, 0.000, 0.000, 20:31:46.432, 1559237506432
89, 28833.82, -29202.02, 34448.86, 35738.67, 43076.73, 56010.39, 42443.43, -32045.79, 0.000, 0.000, 0.000, 20:31:46.432, 1559237506432
90, 28833.55, -29272.07, 34429.62, 35724.03, 43057.35, 55968.95, 42418.96, -31549.26, 0.000, 0.000, 0.000, 20:31:46.432, 1559237506432
91, 28842.42, -29472.12, 34418.11, 35702.11, 43049.59, 55893.11, 42406.11, -31216.47, 0.000, 0.000, 0.000, 20:31:46.432, 1559237506432
92, 28838.09, -29477.14, 34431.99, 35715.49, 43058.49, 55897.91, 42420.48, -31747.16, 0.000, 0.000, 0.000, 20:31:46.432, 1559237506432
93, 28822.26, -29396.43, 34440.13, 35733.31, 43067.03, 55932.58, 42433.22, -32122.21, 0.000, 0.000, 0.000, 20:31:46.432, 1559237506432
94, 28810.88, -29226.76, 34431.59, 35719.50, 43054.93, 55982.54, 42428.68, -32032.78, 0.000, 0.000, 0.000, 20:31:46.432, 1559237506432
95, 28806.64, -29284.16, 34408.30, 35690.66, 43038.11, 55945.99, 42406.98, -31535.18, 0.000, 0.000, 0.000, 20:31:46.432, 1559237506432
96, 28783.46, -29493.93, 34402.55, 35687.91, 43039.11, 55874.31, 42387.27, -31206.59, -0.006, -0.030, 1.016, 20:31:46.432, 1559237506432
97, 28783.68, -29502.16, 34413.91, 35707.11, 43045.34, 55875.38, 42399.09, -31733.89, 0.000, 0.000, 0.000, 20:31:46.432, 1559237506432
98, 28792.58, -29418.74, 34422.09, 35719.18, 43051.54, 55909.51, 42409.66, -32115.77, 0.000, 0.000, 0.000, 20:31:46.432, 1559237506432
99, 28794.25, -29229.67, 34421.08, 35717.10, 43048.54, 55968.32, 42407.74, -32034.16, 0.000, 0.000, 0.000, 20:31:46.432, 1559237506432
100, 28794.83, -29297.46, 34393.01, 35695.45, 43026.26, 55927.50, 42376.58, -31536.41, 0.000, 0.000, 0.000, 20:31:46.432, 1559237506432
101, 28791.75, -29496.97, 34383.93, 35688.71, 43021.59, 55853.05, 42369.77, -31206.77, 0.000, 0.000, 0.000, 20:31:46.433, 1559237506433
102, 28776.04, -29475.51, 34410.60, 35707.54, 43040.03, 55866.20, 42392.36, -31718.29, 0.000, 0.000, 0.000, 20:31:46.433, 1559237506433
103, 28784.80, -29381.43, 34412.99, 35709.79, 43039.60, 55892.39, 42402.38, -32105.49, 0.000, 0.000, 0.000, 20:31:46.433, 1559237506433
104, 28791.10, -29229.29, 34399.87, 35696.76, 43032.20, 55943.53, 42380.27, -32023.92, 0.000, 0.000, 0.000, 20:31:46.433, 1559237506433
105, 28766.27, -29308.70, 34384.65, 35662.23, 43014.88, 55902.70, 42356.69, -31540.05, 0.000, 0.000, 0.000, 20:31:46.433, 1559237506433
106, 28767.05, -29491.70, 34381.50, 35665.14, 43014.48, 55832.71, 42354.03, -31209.99, -0.006, -0.026, 1.014, 20:31:46.433, 1559237506433
107, 28764.10, -29478.31, 34393.59, 35690.66, 43029.95, 55848.04, 42372.11, -31704.41, 0.000, 0.000, 0.000, 20:31:46.433, 1559237506433
108, 28757.69, -29398.53, 34404.45, 35703.31, 43038.62, 55884.63, 42387.38, -32087.96, 0.000, 0.000, 0.000, 20:31:46.433, 1559237506433
109, 28751.03, -29230.09, 34394.80, 35687.71, 43022.66, 55934.59, 42375.31, -32000.52, 0.000, 0.000, 0.000, 20:31:46.433, 1559237506433
110, 28739.07, -29309.86, 34374.28, 35667.75, 43006.34, 55898.40, 42351.32, -31517.90, 0.000, 0.000, 0.000, 20:31:46.433, 1559237506433
111, 28744.48, -29497.89, 34368.27, 35665.96, 43007.39, 55826.81, 42348.62, -31187.41, 0.000, 0.000, 0.000, 20:31:46.433, 1559237506433
112, 28752.10, -29462.04, 34386.21, 35675.04, 43022.99, 55833.67, 42365.79, -31693.63, 0.000, 0.000, 0.000, 20:31:46.433, 1559237506433
113, 28748.84, -29374.10, 34388.63, 35680.27, 43020.91, 55860.76, 42364.96, -32083.02, 0.000, 0.000, 0.000, 20:31:46.433, 1559237506433
114, 28738.69, -29230.87, 34368.51, 35672.06, 42998.99, 55908.59, 42344.26, -31999.85, 0.000, 0.000, 0.000, 20:31:46.433, 1559237506433
115, 28747.40, -29313.89, 34347.84, 35654.56, 42984.14, 55874.82, 42330.43, -31516.23, 0.000, 0.000, 0.000, 20:31:46.434, 1559237506434
116, 28729.81, -29510.85, 34352.55, 35648.80, 42983.61, 55800.32, 42319.81, -31186.85, -0.008, -0.026, 1.018, 20:31:46.434, 1559237506434
117, 28720.07, -29473.66, 34380.47, 35670.59, 43006.72, 55814.52, 42333.31, -31698.26, 0.000, 0.000, 0.000, 20:31:46.434, 1559237506434
118, 28726.62, -29383.67, 34389.10, 35680.04, 43012.73, 55848.76, 42346.27, -32079.63, 0.000, 0.000, 0.000, 20:31:46.434, 1559237506434
119, 28718.10, -29214.00, 34374.48, 35668.55, 43000.22, 55898.11, 42334.80, -32005.80, 0.000, 0.000, 0.000, 20:31:46.434, 1559237506434
120, 28705.36, -29306.96, 34344.86, 35647.54, 42978.16, 55860.09, 42308.86, -31541.13, 0.000, 0.000, 0.000, 20:31:46.905, 1559237506905
121, 28714.53, -29520.98, 34340.73, 35633.66, 42979.83, 55788.45, 42307.58, -31224.40, 0.000, 0.000, 0.000, 20:31:46.905, 1559237506905
122, 28717.72, -29490.87, 34358.74, 35656.75, 42995.99, 55796.95, 42325.93, -31728.84, 0.000, 0.000, 0.000, 20:31:46.905, 1559237506905
123, 28717.50, -29400.77, 34366.61, 35666.63, 43001.49, 55830.12, 42343.23, -32112.71, 0.000, 0.000, 0.000, 20:31:46.905, 1559237506905
124, 28714.03, -29246.29, 34359.04, 35654.50, 42989.02, 55881.10, 42328.75, -32028.17, 0.000, 0.000, 0.000, 20:31:46.905, 1559237506905
125, 28690.72, -29320.77, 34340.73, 35637.35, 42973.91, 55845.07, 42306.69, -31574.88, 0.000, 0.000, 0.000, 20:31:46.906, 1559237506906
126, 28675.63, -29531.04, 34329.98, 35627.96, 42971.52, 55761.63, 42297.43, -31254.78, -0.008, -0.024, 1.012, 20:31:46.906, 1559237506906
127, 28693.92, -29507.99, 34347.28, 35642.83, 42987.05, 55769.34, 42309.79, -31768.67, 0.000, 0.000, 0.000, 20:31:46.906, 1559237506906
128, 28696.69, -29412.55, 34355.79, 35653.07, 42991.07, 55805.06, 42315.63, -32164.96, 0.000, 0.000, 0.000, 20:31:46.906, 1559237506906
129, 28671.52, -29246.52, 34340.21, 35635.52, 42973.91, 55850.79, 42308.27, -32068.25, 0.000, 0.000, 0.000, 20:31:46.906, 1559237506906
130, 28654.29, -29319.27, 34318.93, 35614.64, 42956.32, 55814.43, 42286.66, -31607.02, 0.000, 0.000, 0.000, 20:31:46.906, 1559237506906
131, 28648.83, -29535.95, 34312.61, 35611.82, 42956.07, 55737.38, 42276.11, -31287.46, 0.000, 0.000, 0.000, 20:31:46.906, 1559237506906
132, 28655.45, -29520.35, 34335.83, 35637.24, 42976.88, 55750.79, 42296.18, -31781.97, 0.000, 0.000, 0.000, 20:31:46.906, 1559237506906
133, 28660.34, -29428.06, 34340.86, 35646.09, 42979.86, 55784.88, 42300.86, -32177.95, 0.000, 0.000, 0.000, 20:31:46.906, 1559237506906
134, 28651.49, -29252.98, 34324.16, 35630.33, 42963.67, 55836.09, 42287.33, -32091.98, 0.000, 0.000, 0.000, 20:31:46.906, 1559237506906
135, 28633.32, -29341.22, 34301.75, 35604.81, 42942.68, 55797.48, 42263.41, -31631.27, -0.008, -0.018, 1.016, 20:31:46.906, 1559237506906
136, 28624.00, -29565.37, 34297.57, 35599.76, 42942.86, 55718.72, 42257.34, -31305.18, 0.000, 0.000, 0.000, 20:31:46.907, 1559237506907
137, 28619.91, -29556.69, 34315.87, 35612.00, 42956.41, 55722.76, 42276.16, -31789.79, 0.000, 0.000, 0.000, 20:31:46.907, 1559237506907
138, 28612.56, -29476.23, 34323.41, 35612.65, 42962.60, 55749.81, 42289.81, -32174.73, 0.000, 0.000, 0.000, 20:31:46.907, 1559237506907
139, 28581.91, -29322.18, 34309.90, 35589.09, 42947.89, 55797.24, 42269.29, -32095.90, 0.000, 0.000, 0.000, 20:31:46.907, 1559237506907
140, 28563.20, -29413.22, 34279.91, 35558.76, 42919.59, 55753.03, 42240.41, -31642.38, 0.000, 0.000, 0.000, 20:31:46.907, 1559237506907
141, 28557.41, -29624.51, 34268.75, 35561.31, 42918.54, 55678.11, 42242.40, -31308.89, 0.000, 0.000, 0.000, 20:31:46.907, 1559237506907
142, 28528.16, -29615.26, 34277.81, 35580.42, 42937.99, 55692.25, 42269.88, -31780.02, 0.000, 0.000, 0.000, 20:31:46.907, 1559237506907
143, 28512.67, -29553.34, 34280.45, 35582.05, 42941.14, 55725.16, 42267.13, -32185.35, 0.000, 0.000, 0.000, 20:31:46.907, 1559237506907
144, 28495.59, -29403.85, 34260.21, 35558.25, 42919.86, 55770.19, 42249.63, -32110.60, 0.000, 0.000, 0.000, 20:31:46.907, 1559237506907
145, 28475.32, -29489.93, 34236.77, 35536.88, 42906.88, 55742.52, 42229.73, -31659.90, -0.006, -0.018, 1.018, 20:31:46.907, 1559237506907
146, 28442.46, -29711.26, 34227.36, 35538.22, 42912.09, 55673.45, 42228.39, -31313.43, 0.000, 0.000, 0.000, 20:31:46.907, 1559237506907
147, 28429.03, -29706.52, 34239.77, 35552.10, 42923.80, 55676.43, 42239.18, -31785.61, 0.000, 0.000, 0.000, 20:31:46.907, 1559237506907
148, 28430.28, -29636.09, 34247.03, 35553.49, 42927.13, 55700.84, 42242.45, -32201.22, 0.000, 0.000, 0.000, 20:31:46.907, 1559237506907
149, 28406.25, -29476.96, 34229.77, 35536.10, 42910.14, 55753.72, 42229.80, -32129.45, 0.000, 0.000, 0.000, 20:31:46.907, 1559237506907
150, 28385.24, -29558.71, 34203.96, 35512.74, 42891.59, 55721.33, 42204.92, -31670.79, 0.000, 0.000, 0.000, 20:31:46.907, 1559237506907
151, 28375.92, -29786.31, 34200.56, 35515.45, 42896.55, 55652.58, 42210.69, -31319.64, 0.000, 0.000, 0.000, 20:31:46.907, 1559237506907
152, 28374.60, -29772.03, 34209.77, 35522.42, 42901.51, 55648.13, 42222.31, -31776.96, 0.000, 0.000, 0.000, 20:31:46.907, 1559237506907
153, 28370.58, -29678.24, 34213.72, 35531.23, 42902.52, 55680.85, 42231.45, -32186.04, 0.000, 0.000, 0.000, 20:31:46.907, 1559237506907
154, 28341.74, -29532.15, 34197.41, 35517.64, 42883.32, 55732.46, 42213.23, -32139.59, 0.000, 0.000, 0.000, 20:31:46.907, 1559237506907
155, 28316.66, -29608.33, 34178.48, 35512.05, 42874.73, 55705.71, 42194.86, -31696.27, -0.004, -0.022, 1.020, 20:31:46.907, 1559237506907
156, 28315.55, -29818.88, 34170.88, 35494.64, 42875.43, 55629.04, 42194.64, -31331.47, 0.000, 0.000, 0.000, 20:31:46.908, 1559237506908
157, 28313.98, -29827.17, 34179.73, 35499.55, 42877.82, 55626.61, 42206.84, -31798.08, 0.000, 0.000, 0.000, 20:31:46.908, 1559237506908
158, 28307.34, -29746.13, 34180.73, 35505.32, 42876.50, 55652.49, 42217.53, -32205.55, 0.000, 0.000, 0.000, 20:31:46.908, 1559237506908
159, 28280.72, -29569.97, 34171.12, 35494.73, 42867.45, 55710.85, 42209.79, -32136.02, 0.000, 0.000, 0.000, 20:31:46.908, 1559237506908
160, 28267.98, -29639.35, 34151.48, 35476.64, 42851.49, 55685.70, 42179.33, -31686.48, 0.000, 0.000, 0.000, 20:31:46.908, 1559237506908
161, 28283.03, -29857.48, 34142.49, 35476.93, 42850.71, 55607.23, 42166.39, -31333.68, 0.000, 0.000, 0.000, 20:31:46.908, 1559237506908
162, 28276.92, -29846.82, 34152.73, 35491.73, 42865.19, 55610.82, 42186.64, -31795.56, 0.000, 0.000, 0.000, 20:31:46.908, 1559237506908
163, 28271.92, -29755.80, 34165.29, 35504.25, 42872.61, 55650.63, 42202.08, -32199.61, 0.000, 0.000, 0.000, 20:31:46.908, 1559237506908
164, 28264.65, -29575.89, 34150.25, 35493.05, 42855.49, 55706.34, 42191.22, -32124.06, 0.000, 0.000, 0.000, 20:31:46.908, 1559237506908
165, 28273.75, -29630.21, 34126.29, 35472.53, 42831.77, 55671.27, 42162.50, -31694.01, 0.000, -0.020, 1.020, 20:31:46.908, 1559237506908
166, 28294.25, -29831.87, 34113.19, 35469.13, 42832.29, 55591.29, 42157.02, -31333.84, 0.000, 0.000, 0.000, 20:31:46.908, 1559237506908
167, 28278.13, -29822.08, 34137.89, 35486.57, 42851.49, 55600.03, 42176.02, -31784.27, 0.000, 0.000, 0.000, 20:31:46.908, 1559237506908
168, 28260.72, -29733.70, 34152.32, 35497.56, 42854.91, 55624.30, 42181.25, -32213.82, 0.000, 0.000, 0.000, 20:31:46.908, 1559237506908
169, 28258.39, -29575.11, 34135.29, 35485.43, 42833.29, 55672.67, 42167.19, -32152.54, 0.000, 0.000, 0.000, 20:31:46.908, 1559237506908
170, 28268.05, -29629.38, 34108.45, 35467.10, 42814.36, 55641.47, 42139.72, -31707.16, 0.000, 0.000, 0.000, 20:31:46.908, 1559237506908
171, 28269.35, -29837.52, 34108.14, 35454.02, 42819.01, 55562.16, 42145.73, -31338.91, 0.000, 0.000, 0.000, 20:31:46.908, 1559237506908
172, 28255.35, -29847.31, 34132.41, 35472.38, 42836.42, 55563.57, 42161.69, -31786.46, 0.000, 0.000, 0.000, 20:31:46.908, 1559237506908
173, 28244.20, -29753.61, 34143.00, 35486.23, 42840.31, 55592.47, 42168.09, -32209.00, 0.000, 0.000, 0.000, 20:31:46.909, 1559237506909
174, 28235.48, -29551.55, 34129.68, 35475.93, 42823.39, 55654.41, 42166.61, -32145.12, 0.000, 0.000, 0.000, 20:31:46.909, 1559237506909
175, 28235.42, -29603.70, 34106.26, 35457.27, 42807.14, 55629.27, 42140.43, -31708.81, 0.000, -0.022, 1.022, 20:31:46.909, 1559237506909
176, 28263.94, -29830.23, 34105.39, 35459.48, 42810.88, 55546.50, 42117.17, -31349.15, 0.000, 0.000, 0.000, 20:31:46.909, 1559237506909
177, 28275.36, -29828.89, 34129.41, 35477.58, 42824.09, 55549.22, 42130.46, -31807.56, 0.000, 0.000, 0.000, 20:31:46.909, 1559237506909
178, 28260.25, -29738.64, 34135.38, 35487.55, 42826.01, 55579.24, 42135.36, -32244.67, 0.000, 0.000, 0.000, 20:31:46.909, 1559237506909
179, 28245.63, -29556.13, 34120.14, 35474.48, 42808.39, 55630.29, 42121.46, -32191.07, 0.000, 0.000, 0.000, 20:31:46.909, 1559237506909
180, 28255.04, -29599.25, 34102.59, 35461.45, 42794.89, 55608.75, 42105.54, -31749.22, 0.000, 0.000, 0.000, 20:31:46.909, 1559237506909
181, 28285.39, -29806.68, 34094.50, 35461.42, 42794.52, 55536.21, 42111.04, -31360.05, 0.000, 0.000, 0.000, 20:31:46.909, 1559237506909
182, 28297.26, -29782.71, 34113.86, 35478.12, 42809.69, 55541.73, 42133.75, -31800.27, 0.000, 0.000, 0.000, 20:31:46.909, 1559237506909
183, 28288.03, -29728.96, 34125.21, 35489.83, 42810.61, 55567.73, 42137.11, -32233.23, 0.000, 0.000, 0.000, 20:31:46.909, 1559237506909
184, 28282.33, -29564.36, 34116.34, 35477.85, 42800.39, 55623.66, 42127.00, -32186.09, 0.000, 0.000, 0.000, 20:31:46.909, 1559237506909
185, 28271.22, -29580.16, 34091.19, 35438.00, 42781.42, 55595.45, 42101.54, -31745.04, 0.000, -0.022, 1.024, 20:31:46.909, 1559237506909
186, 28268.79, -29791.99, 34093.09, 35442.45, 42782.63, 55517.02, 42093.12, -31354.49, 0.000, 0.000, 0.000, 20:31:46.909, 1559237506909
187, 28274.71, -29802.09, 34108.89, 35458.02, 42796.21, 55511.14, 42105.45, -31802.20, 0.000, 0.000, 0.000, 20:31:46.909, 1559237506909
188, 28298.74, -29704.77, 34117.77, 35469.29, 42803.68, 55540.17, 42109.70, -32252.58, 0.000, 0.000, 0.000, 20:31:46.909, 1559237506909
189, 28288.72, -29525.13, 34109.90, 35463.81, 42789.15, 55599.36, 42095.89, -32202.63, 0.000, 0.000, 0.000, 20:31:46.909, 1559237506909
190, 28263.65, -29588.54, 34085.56, 35445.95, 42768.50, 55571.55, 42073.83, -31779.49, 0.000, 0.000, 0.000, 20:31:46.909, 1559237506909
191, 28263.22, -29819.95, 34081.02, 35440.61, 42765.10, 55486.57, 42069.96, -31386.27, 0.000, 0.000, 0.000, 20:31:46.909, 1559237506909
192, 28271.11, -29807.41, 34103.57, 35459.28, 42786.13, 55489.46, 42091.11, -31814.85, 0.000, 0.000, 0.000, 20:31:46.909, 1559237506909
193, 28283.36, -29714.72, 34108.67, 35466.38, 42790.29, 55519.21, 42100.76, -32266.69, 0.000, 0.000, 0.000, 20:31:46.909, 1559237506909
194, 28288.23, -29537.72, 34104.87, 35458.56, 42782.45, 55576.11, 42087.28, -32226.05, 0.000, 0.000, 0.000, 20:31:46.909, 1559237506909
195, 28274.60, -29590.22, 34085.92, 35440.63, 42766.95, 55553.00, 42060.89, -31797.97, -0.004, -0.020, 1.016, 20:31:46.910, 1559237506910
196, 28277.41, -29822.68, 34088.46, 35441.06, 42769.52, 55479.00, 42059.63, -31386.43, 0.000, 0.000, 0.000, 20:31:46.910, 1559237506910
197, 28288.01, -29798.16, 34101.59, 35458.96, 42781.13, 55479.62, 42068.20, -31828.84, 0.000, 0.000, 0.000, 20:31:46.910, 1559237506910
198, 28296.84, -29698.05, 34112.96, 35475.14, 42789.51, 55508.07, 42070.83, -32286.11, 0.000, 0.000, 0.000, 20:31:46.910, 1559237506910
199, 28287.61, -29527.79, 34109.57, 35461.91, 42777.64, 55559.71, 42058.92, -32252.40, 0.000, 0.000, 0.000, 20:31:46.910, 1559237506910
200, 28271.85, -29595.72, 34082.79, 35423.13, 42751.51, 55531.72, 42033.66, -31826.74, 0.000, 0.000, 0.000, 20:31:46.910, 1559237506910
201, 28279.05, -29832.54, 34078.63, 35427.92, 42754.71, 55457.40, 42035.79, -31422.62, 0.000, 0.000, 0.000, 20:31:46.910, 1559237506910
202, 28283.54, -29824.87, 34098.19, 35451.16, 42770.42, 55460.51, 42054.11, -31838.94, 0.000, 0.000, 0.000, 20:31:46.910, 1559237506910
203, 28293.04, -29720.76, 34110.46, 35467.95, 42780.16, 55497.57, 42065.04, -32290.98, 0.000, 0.000, 0.000, 20:31:46.910, 1559237506910
204, 28289.46, -29537.45, 34105.09, 35456.93, 42769.32, 55554.50, 42054.05, -32269.50, 0.000, 0.000, 0.000, 20:31:46.910, 1559237506910
205, 28280.23, -29580.50, 34091.59, 35443.96, 42762.55, 55544.35, 42050.87, -31836.73, -0.004, -0.020, 1.018, 20:31:46.910, 1559237506910
206, 28277.79, -29819.73, 34078.54, 35439.20, 42757.23, 55460.75, 42037.80, -31419.55, 0.000, 0.000, 0.000, 20:31:46.910, 1559237506910
207, 28278.13, -29822.46, 34087.73, 35457.53, 42768.99, 55456.26, 42040.43, -31847.97, 0.000, 0.000, 0.000, 20:31:46.910, 1559237506910
208, 28278.33, -29727.24, 34096.00, 35465.69, 42775.49, 55484.94, 42052.14, -32308.98, 0.000, 0.000, 0.000, 20:31:46.910, 1559237506910
209, 28279.00, -29554.62, 34090.16, 35443.61, 42759.27, 55534.34, 42041.13, -32281.66, 0.000, 0.000, 0.000, 20:31:46.910, 1559237506910
210, 28274.87, -29595.97, 34066.05, 35416.29, 42736.58, 55505.82, 42017.88, -31868.13, 0.000, 0.000, 0.000, 20:31:46.910, 1559237506910
211, 28266.44, -29821.23, 34066.14, 35421.68, 42744.98, 55431.07, 42016.23, -31455.43, 0.000, 0.000, 0.000, 20:31:46.910, 1559237506910
212, 28272.86, -29823.80, 34087.84, 35442.00, 42763.80, 55435.88, 42029.91, -31873.90, 0.000, 0.000, 0.000, 20:31:46.910, 1559237506910
213, 28278.85, -29734.14, 34095.39, 35444.79, 42765.43, 55457.98, 42035.02, -32343.85, 0.000, 0.000, 0.000, 20:31:46.911, 1559237506911
214, 28271.02, -29558.55, 34087.82, 35436.14, 42756.70, 55513.93, 42022.57, -32313.85, 0.000, 0.000, 0.000, 20:31:46.911, 1559237506911
215, 28254.53, -29600.55, 34065.98, 35412.25, 42737.56, 55494.13, 41995.51, -31899.02, -0.002, -0.024, 1.012, 20:31:46.911, 1559237506911
216, 28259.42, -29817.83, 34059.50, 35411.67, 42739.53, 55415.34, 41989.83, -31477.76, 0.000, 0.000, 0.000, 20:31:46.911, 1559237506911
217, 28261.14, -29828.45, 34075.39, 35431.76, 42753.81, 55413.28, 42002.57, -31887.53, 0.000, 0.000, 0.000, 20:31:46.911, 1559237506911
218, 28256.83, -29748.09, 34088.73, 35439.20, 42761.48, 55445.80, 42014.33, -32356.09, 0.000, 0.000, 0.000, 20:31:46.911, 1559237506911
219, 28247.17, -29564.83, 34079.21, 35425.55, 42748.80, 55503.13, 42013.66, -32330.17, 0.000, 0.000, 0.000, 20:31:46.911, 1559237506911
220, 28250.12, -29604.86, 34043.25, 35403.39, 42718.99, 55471.84, 41981.02, -31907.18, 0.000, 0.000, 0.000, 20:31:46.911, 1559237506911
221, 28252.67, -29827.02, 34032.39, 35385.65, 42714.61, 55381.63, 41959.72, -31502.12, 0.000, 0.000, 0.000, 20:31:46.911, 1559237506911
222, 28252.13, -29838.33, 34057.82, 35392.11, 42721.51, 55368.09, 41973.42, -31915.59, 0.000, 0.000, 0.000, 20:31:46.911, 1559237506911
223, 28247.53, -29747.76, 34070.41, 35405.88, 42725.09, 55397.30, 41981.22, -32381.91, 0.000, 0.000, 0.000, 20:31:46.911, 1559237506911
224, 28206.31, -29585.33, 34058.67, 35404.18, 42719.64, 55463.93, 41986.61, -32352.58, 0.000, 0.000, 0.000, 20:31:46.912, 1559237506912
225, 28190.02, -29641.27, 34030.46, 35377.13, 42697.06, 55439.45, 41964.80, -31933.02, 0.000, -0.026, 1.018, 20:31:46.912, 1559237506912
226, 28202.96, -29859.85, 34017.66, 35369.82, 42689.98, 55353.69, 41951.12, -31510.82, 0.000, 0.000, 0.000, 20:31:46.912, 1559237506912
227, 28214.14, -29863.20, 34033.97, 35386.95, 42706.96, 55352.26, 41970.52, -31913.98, 0.000, 0.000, 0.000, 20:31:46.912, 1559237506912
228, 28223.72, -29779.21, 34042.24, 35400.38, 42718.38, 55383.13, 41980.26, -32385.15, 0.000, 0.000, 0.000, 20:31:46.912, 1559237506912
229, 28231.88, -29609.02, 34033.95, 35389.79, 42705.60, 55442.70, 41967.52, -32365.30, 0.000, 0.000, 0.000, 20:31:46.912, 1559237506912
230, 28220.82, -29627.55, 34022.71, 35371.95, 42696.14, 55430.04, 41951.90, -31941.02, 0.000, 0.000, 0.000, 20:31:46.912, 1559237506912
231, 28190.67, -29854.53, 34017.30, 35364.73, 42692.95, 55343.66, 41944.14, -31508.22, 0.000, 0.000, 0.000, 20:31:46.912, 1559237506912
232, 28189.59, -29861.77, 34032.88, 35384.91, 42704.91, 55343.95, 41960.41, -31912.75, 0.000, 0.000, 0.000, 20:31:46.912, 1559237506912
233, 28198.98, -29779.16, 34044.19, 35395.39, 42713.33, 55376.67, 41968.21, -32398.65, 0.000, 0.000, 0.000, 20:31:46.912, 1559237506912
234, 28188.83, -29612.78, 34033.79, 35381.38, 42703.32, 55432.79, 41957.78, -32368.72, 0.000, 0.000, 0.000, 20:31:46.913, 1559237506913
235, 28187.85, -29650.62, 34006.19, 35358.11, 42683.79, 55413.66, 41936.90, -31951.84, -0.004, -0.024, 1.024, 20:31:46.913, 1559237506913
236, 28197.64, -29874.63, 33995.73, 35354.07, 42676.86, 55322.82, 41926.15, -31530.33, 0.000, 0.000, 0.000, 20:31:46.913, 1559237506913
237, 28190.04, -29855.38, 34015.87, 35380.51, 42692.43, 55318.60, 41944.90, -31924.04, 0.000, 0.000, 0.000, 20:31:46.913, 1559237506913
238, 28195.25, -29774.13, 34034.64, 35379.70, 42707.57, 55352.55, 41952.21, -32402.63, 0.000, 0.000, 0.000, 20:31:46.913, 1559237506913
239, 28199.25, -29592.79, 34025.97, 35370.02, 42695.59, 55412.68, 41941.86, -32382.45, 0.000, 0.000, 0.000, 20:31:46.913, 1559237506913
240, 28190.78, -29642.53, 34002.12, 35346.69, 42670.20, 55397.97, 41915.91, -31969.19, 0.000, 0.000, 0.000, 20:31:47.381, 1559237507381
241, 28184.56, -29879.48, 34000.42, 35348.59, 42669.88, 55316.18, 41908.31, -31534.60, 0.000, 0.000, 0.000, 20:31:47.381, 1559237507381
242, 28178.71, -29899.93, 34019.84, 35373.78, 42688.10, 55317.30, 41925.41, -31911.52, 0.000, 0.000, 0.000, 20:31:47.381, 1559237507381
243, 28180.12, -29816.82, 34030.29, 35381.83, 42694.98, 55343.30, 41936.97, -32384.64, 0.000, 0.000, 0.000, 20:31:47.381, 1559237507381
244, 28181.48, -29631.97, 34016.63, 35364.64, 42680.39, 55398.46, 41928.86, -32370.55, 0.000, 0.000, 0.000, 20:31:47.381, 1559237507381
245, 28164.94, -29661.37, 33998.70, 35344.70, 42666.04, 55386.26, 41910.61, -31968.36, -0.004, -0.024, 1.024, 20:31:47.381, 1559237507381
246, 28155.96, -29889.06, 33989.98, 35338.57, 42660.88, 55299.15, 41901.43, -31534.22, 0.000, 0.000, 0.000, 20:31:47.381, 1559237507381
247, 28171.29, -29897.51, 34001.09, 35354.16, 42671.36, 55291.42, 41909.61, -31919.77, 0.000, 0.000, 0.000, 20:31:47.381, 1559237507381
248, 28186.87, -29824.47, 34014.91, 35370.83, 42683.23, 55323.36, 41918.53, -32402.83, 0.000, 0.000, 0.000, 20:31:47.381, 1559237507381
249, 28170.71, -29645.47, 34009.12, 35358.02, 42667.69, 55374.63, 41896.82, -32396.91, 0.000, 0.000, 0.000, 20:31:47.381, 1559237507381
250, 28151.11, -29649.19, 33993.40, 35340.99, 42648.58, 55360.98, 41865.17, -31988.59, 0.000, 0.000, 0.000, 20:31:47.381, 1559237507381
251, 28150.55, -29901.29, 33983.14, 35338.29, 42641.16, 55271.91, 41857.29, -31553.85, 0.000, 0.000, 0.000, 20:31:47.381, 1559237507381
252, 28152.02, -29924.09, 33995.23, 35357.33, 42651.51, 55262.68, 41868.64, -31932.75, 0.000, 0.000, 0.000, 20:31:47.381, 1559237507381
253, 28153.12, -29825.92, 34008.96, 35355.34, 42662.06, 55299.64, 41886.34, -32413.00, 0.000, 0.000, 0.000, 20:31:47.381, 1559237507381
254, 28151.11, -29632.87, 33994.30, 35342.04, 42644.24, 55353.49, 41879.52, -32399.12, 0.000, -0.028, 1.026, 20:31:47.382, 1559237507382
255, 28138.16, -29635.10, 33970.38, 35319.46, 42626.45, 55341.11, 41862.07, -31988.79, 0.000, 0.000, 0.000, 20:31:47.382, 1559237507382
0, 28143.33, -29902.70, 33956.52, 35311.89, 42624.35, 55257.18, 41859.18, -31548.53, 0.000, 0.000, 0.000, 20:31:47.382, 1559237507382
1, 28138.10, -29923.87, 33971.10, 35325.88, 42637.80, 55252.08, 41878.32, -31925.35, 0.000, 0.000, 0.000, 20:31:47.382, 1559237507382
2, 28129.94, -29852.12, 33984.22, 35337.50, 42645.34, 55281.14, 41890.32, -32400.35, 0.000, 0.000, 0.000, 20:31:47.382, 1559237507382
3, 28130.50, -29672.81, 33980.42, 35332.77, 42638.25, 55340.19, 41887.86, -32396.80, 0.000, 0.000, 0.000, 20:31:47.382, 1559237507382
4, 28124.95, -29685.37, 33954.31, 35309.70, 42613.06, 55321.66, 41860.19, -31997.44, 0.000, 0.000, 0.000, 20:31:47.382, 1559237507382
5, 28134.10, -29920.87, 33950.46, 35311.26, 42614.85, 55241.33, 41858.60, -31562.16, 0.000, 0.000, 0.000, 20:31:47.382, 1559237507382
6, 28127.41, -29935.53, 33968.04, 35329.90, 42630.56, 55234.58, 41873.96, -31929.53, 0.000, 0.000, 0.000, 20:31:47.382, 1559237507382
7, 28120.13, -29857.15, 33981.09, 35338.17, 42641.70, 55258.41, 41862.78, -32414.54, 0.000, 0.000, 0.000, 20:31:47.382, 1559237507382
8, 28105.55, -29673.57, 33966.43, 35319.84, 42627.14, 55307.29, 41846.62, -32411.01, -0.004, -0.028, 1.022, 20:31:47.382, 1559237507382
9, 28096.83, -29685.66, 33952.03, 35291.97, 42612.73, 55294.32, 41827.36, -32014.29, 0.000, 0.000, 0.000, 20:31:47.382, 1559237507382
10, 28102.24, -29934.21, 33949.71, 35289.40, 42611.21, 55207.58, 41815.95, -31575.06, 0.000, 0.000, 0.000, 20:31:47.382, 1559237507382
11, 28108.05, -29956.19, 33966.89, 35310.52, 42625.91, 55202.95, 41831.20, -31938.99, 0.000, 0.000, 0.000, 20:31:47.382, 1559237507382
12, 28106.40, -29871.45, 33971.63, 35303.53, 42629.56, 55232.48, 41846.46, -32431.17, 0.000, 0.000, 0.000, 20:31:47.382, 1559237507382
13, 28101.08, -29683.18, 33954.38, 35291.01, 42609.04, 55283.80, 41834.33, -32414.63, 0.000, 0.000, 0.000, 20:31:47.382, 1559237507382
14, 28093.44, -29687.79, 33927.73, 35272.41, 42587.20, 55270.74, 41810.25, -32022.27, 0.000, 0.000, 0.000, 20:31:47.382, 1559237507382
15, 28084.25, -29928.47, 33917.77, 35263.54, 42580.16, 55185.54, 41804.38, -31570.81, 0.000, 0.000, 0.000, 20:31:47.382, 1559237507382
16, 28086.26, -29949.37, 33938.42, 35283.48, 42593.44, 55178.54, 41812.65, -31935.28, 0.000, 0.000, 0.000, 20:31:47.382, 1559237507382
17, 28087.51, -29875.36, 33952.95, 35302.07, 42607.54, 55214.26, 41829.03, -32425.03, 0.000, 0.000, 0.000, 20:31:47.382, 1559237507382
18, 28063.84, -29713.76, 33933.90, 35289.40, 42586.15, 55267.68, 41816.38, -32420.58, -0.008, -0.028, 1.020, 20:31:47.382, 1559237507382
19, 28055.73, -29713.45, 33922.64, 35274.92, 42571.85, 55259.21, 41796.29, -32031.48, 0.000, 0.000, 0.000, 20:31:47.383, 1559237507383
20, 28073.63, -29947.89, 33915.80, 35263.09, 42569.86, 55166.54, 41780.33, -31597.07, 0.000, 0.000, 0.000, 20:31:47.383, 1559237507383
21, 28081.90, -29967.03, 33936.61, 35281.80, 42595.81, 55164.86, 41807.28, -31946.99, 0.000, 0.000, 0.000, 20:31:47.383, 1559237507383
22, 28052.73, -29896.11, 33954.29, 35298.01, 42606.58, 55201.07, 41818.08, -32442.10, 0.000, 0.000, 0.000, 20:31:47.383, 1559237507383
23, 28048.89, -29723.26, 33950.31, 35293.56, 42599.27, 55261.04, 41809.32, -32440.81, 0.000, 0.000, 0.000, 20:31:47.383, 1559237507383
24, 28038.03, -29739.46, 33920.98, 35265.78, 42573.84, 55246.58, 41786.38, -32068.43, 0.000, 0.000, 0.000, 20:31:47.383, 1559237507383
25, 28055.78, -29978.23, 33907.35, 35259.25, 42570.66, 55160.17, 41783.70, -31639.81, 0.000, 0.000, 0.000, 20:31:47.383, 1559237507383
26, 28061.56, -29992.69, 33914.01, 35269.82, 42575.29, 55144.08, 41790.99, -31981.32, 0.000, 0.000, 0.000, 20:31:47.383, 1559237507383
27, 28059.62, -29905.67, 33935.71, 35283.86, 42589.62, 55174.41, 41800.98, -32484.17, 0.000, 0.000, 0.000, 20:31:47.383, 1559237507383
28, 28058.12, -29719.73, 33928.07, 35276.06, 42581.41, 55232.34, 41794.21, -32478.51, -0.006, -0.026, 1.018, 20:31:47.383, 1559237507383
29, 28033.65, -29705.91, 33902.36, 35240.32, 42560.92, 55220.56, 41777.89, -32088.88, 0.000, 0.000, 0.000, 20:31:47.383, 1559237507383
30, 28032.06, -29967.16, 33897.20, 35236.81, 42559.24, 55133.88, 41771.74, -31639.92, 0.000, 0.000, 0.000, 20:31:47.383, 1559237507383
31, 28048.26, -30004.91, 33912.38, 35252.43, 42572.50, 55124.14, 41784.33, -31967.13, 0.000, 0.000, 0.000, 20:31:47.385, 1559237507385
32, 28043.64, -29911.21, 33930.21, 35273.69, 42589.77, 55161.49, 41795.19, -32468.86, 0.000, 0.000, 0.000, 20:31:47.385, 1559237507385
33, 28026.25, -29735.62, 33925.54, 35265.48, 42579.16, 55217.25, 41783.10, -32475.61, 0.000, 0.000, 0.000, 20:31:47.385, 1559237507385
34, 28009.55, -29744.63, 33902.25, 35243.85, 42558.21, 55211.78, 41769.66, -32089.50, 0.000, 0.000, 0.000, 20:31:47.385, 1559237507385
35, 28012.43, -29986.85, 33898.14, 35245.32, 42562.61, 55131.76, 41750.91, -31634.33, 0.000, 0.000, 0.000, 20:31:47.385, 1559237507385
36, 28028.33, -30007.33, 33908.18, 35259.47, 42572.34, 55120.38, 41754.76, -31986.22, 0.000, 0.000, 0.000, 20:31:47.385, 1559237507385
37, 28029.71, -29928.07, 33917.72, 35266.89, 42578.20, 55148.26, 41762.98, -32497.29, 0.000, 0.000, 0.000, 20:31:47.385, 1559237507385
38, 28015.03, -29745.41, 33915.55, 35260.75, 42566.68, 55201.39, 41755.58, -32509.09, -0.004, -0.020, 1.018, 20:31:47.385, 1559237507385
39, 28002.11, -29737.34, 33888.62, 35237.10, 42541.94, 55187.75, 41727.82, -32145.58, 0.000, 0.000, 0.000, 20:31:47.385, 1559237507385
40, 28012.86, -29977.13, 33881.62, 35235.40, 42547.19, 55104.89, 41727.22, -31694.68, 0.000, 0.000, 0.000, 20:31:47.385, 1559237507385
41, 28015.54, -29998.07, 33904.87, 35252.81, 42564.61, 55102.43, 41752.45, -32014.63, 0.000, 0.000, 0.000, 20:31:47.385, 1559237507385
42, 28011.07, -29920.69, 33910.86, 35254.31, 42562.37, 55124.74, 41754.53, -32515.51, 0.000, 0.000, 0.000, 20:31:47.385, 1559237507385
43, 28010.11, -29753.37, 33901.45, 35241.48, 42549.18, 55172.02, 41745.05, -32535.85, 0.000, 0.000, 0.000, 20:31:47.385, 1559237507385
44, 27998.49, -29760.01, 33879.45, 35221.61, 42527.01, 55165.82, 41725.09, -32161.68, 0.000, 0.000, 0.000, 20:31:47.385, 1559237507385
45, 27996.07, -29981.42, 33866.40, 35221.18, 42520.41, 55080.64, 41716.20, -31705.28, 0.000, 0.000, 0.000, 20:31:47.385, 1559237507385
46, 27994.78, -30012.11, 33873.96, 35235.64, 42531.46, 55065.69, 41727.98, -32025.56, 0.000, 0.000, 0.000, 20:31:47.386, 1559237507386
47, 27988.61, -29931.26, 33881.76, 35227.53, 42537.92, 55090.48, 41731.84, -32539.82, 0.000, 0.000, 0.000, 20:31:47.386, 1559237507386
48, 27987.09, -29748.94, 33878.56, 35220.94, 42527.25, 55145.28, 41718.50, -32555.36, -0.004, -0.026, 1.020, 20:31:47.386, 1559237507386
49, 27978.10, -29757.03, 33859.94, 35204.55, 42510.76, 55143.11, 41697.31, -32181.64, 0.000, 0.000, 0.000, 20:31:47.386, 1559237507386
50, 27968.83, -29998.32, 33849.70, 35197.29, 42510.00, 55057.69, 41685.46, -31728.88, 0.000, 0.000, 0.000, 20:31:47.386, 1559237507386
51, 27968.49, -30046.20, 33863.76, 35213.18, 42524.13, 55045.84, 41712.18, -32035.32, 0.000, 0.000, 0.000, 20:31:47.386, 1559237507386
52, 27972.36, -29978.54, 33877.46, 35226.01, 42531.17, 55075.46, 41729.61, -32551.54, 0.000, 0.000, 0.000, 20:31:47.386, 1559237507386
53, 27971.44, -29797.31, 33869.24, 35220.94, 42522.72, 55133.91, 41725.09, -32565.84, 0.000, 0.000, 0.000, 20:31:47.386, 1559237507386
54, 27957.18, -29783.79, 33842.93, 35191.97, 42501.93, 55124.41, 41692.21, -32197.82, 0.000, 0.000, 0.000, 20:31:47.386, 1559237507386
55, 27945.60, -30024.79, 33826.64, 35176.26, 42496.48, 55035.60, 41678.54, -31739.74, 0.000, 0.000, 0.000, 20:31:47.386, 1559237507386
56, 27948.75, -30055.34, 33846.66, 35188.62, 42512.35, 55023.62, 41695.66, -32053.65, 0.000, 0.000, 0.000, 20:31:47.386, 1559237507386
57, 27967.37, -29966.13, 33859.83, 35204.33, 42522.70, 55053.21, 41707.93, -32570.34, 0.000, 0.000, 0.000, 20:31:47.386, 1559237507386
58, 27952.93, -29793.89, 33845.66, 35193.91, 42504.57, 55100.38, 41691.01, -32578.56, -0.006, -0.022, 1.022, 20:31:47.386, 1559237507386
59, 27949.25, -29776.86, 33827.49, 35177.20, 42486.53, 55099.53, 41669.82, -32221.65, 0.000, 0.000, 0.000, 20:31:47.386, 1559237507386
60, 27959.15, -30011.44, 33814.34, 35171.95, 42483.36, 55011.51, 41655.22, -31774.86, 0.000, 0.000, 0.000, 20:31:47.386, 1559237507386
61, 27937.91, -30063.03, 33833.10, 35192.33, 42499.34, 54994.90, 41664.68, -32085.12, 0.000, 0.000, 0.000, 20:31:47.386, 1559237507386
62, 27926.25, -29991.46, 33851.07, 35196.02, 42510.00, 55023.38, 41682.07, -32595.71, 0.000, 0.000, 0.000, 20:31:47.386, 1559237507386
63, 27915.72, -29809.74, 33845.19, 35176.97, 42497.35, 55075.55, 41673.91, -32614.35, 0.000, 0.000, 0.000, 20:31:47.386, 1559237507386
64, 27903.65, -29801.45, 33819.33, 35157.01, 42471.64, 55071.63, 41650.95, -32251.58, 0.000, 0.000, 0.000, 20:31:47.386, 1559237507386
65, 27913.71, -30032.03, 33809.14, 35155.74, 42472.38, 54990.56, 41650.53, -31776.18, 0.000, 0.000, 0.000, 20:31:47.386, 1559237507386
66, 27923.25, -30064.35, 33818.25, 35162.98, 42480.05, 54974.14, 41662.98, -32073.79, 0.000, 0.000, 0.000, 20:31:47.386, 1559237507386
67, 27916.28, -29976.68, 33829.16, 35173.57, 42487.98, 55000.67, 41674.36, -32587.97, 0.000, 0.000, 0.000, 20:31:47.387, 1559237507387
68, 27913.88, -29828.78, 33822.91, 35169.38, 42477.12, 55060.41, 41665.39, -32607.71, 0.000, -0.024, 1.016, 20:31:47.387, 1559237507387
69, 27900.97, -29811.01, 33798.21, 35150.75, 42456.29, 55058.11, 41646.02, -32244.65, 0.000, 0.000, 0.000, 20:31:47.387, 1559237507387
70, 27911.94, -30047.61, 33788.80, 35146.42, 42452.76, 54976.08, 41628.02, -31788.85, 0.000, 0.000, 0.000, 20:31:47.387, 1559237507387
71, 27915.83, -30086.14, 33805.87, 35155.29, 42461.03, 54958.98, 41637.59, -32090.09, 0.000, 0.000, 0.000, 20:31:47.387, 1559237507387
72, 27900.47, -29998.21, 33820.38, 35162.82, 42479.15, 54989.85, 41663.72, -32605.85, 0.000, 0.000, 0.000, 20:31:47.387, 1559237507387
73, 27885.88, -29823.11, 33815.48, 35151.67, 42472.52, 55046.27, 41661.71, -32608.60, 0.000, 0.000, 0.000, 20:31:47.387, 1559237507387
74, 27879.04, -29822.50, 33790.90, 35132.16, 42451.86, 55044.54, 41630.55, -32262.30, 0.000, 0.000, 0.000, 20:31:47.387, 1559237507387
75, 27877.56, -30071.72, 33780.14, 35128.71, 42449.92, 54963.03, 41627.95, -31810.22, 0.000, 0.000, 0.000, 20:31:47.387, 1559237507387
76, 27890.35, -30105.63, 33797.67, 35148.56, 42463.78, 54953.57, 41648.59, -32089.50, 0.000, 0.000, 0.000, 20:31:47.387, 1559237507387
77, 27884.09, -30014.79, 33805.63, 35155.27, 42466.88, 54975.28, 41652.03, -32608.02, 0.000, 0.000, 0.000, 20:31:47.387, 1559237507387
78, 27870.63, -29837.14, 33800.93, 35151.67, 42458.50, 55024.25, 41643.00, -32644.65, 0.000, -0.028, 1.016, 20:31:47.387, 1559237507387
79, 27866.50, -29820.58, 33777.08, 35134.17, 42439.93, 55024.83, 41623.37, -32289.11, 0.000, 0.000, 0.000, 20:31:47.387, 1559237507387
80, 27868.29, -30056.08, 33766.85, 35112.71, 42436.44, 54940.09, 41612.15, -31828.37, 0.000, 0.000, 0.000, 20:31:47.387, 1559237507387
81, 27871.33, -30099.39, 33781.62, 35126.57, 42446.77, 54921.74, 41623.62, -32107.21, 0.000, 0.000, 0.000, 20:31:47.387, 1559237507387
82, 27874.26, -30028.72, 33795.23, 35133.72, 42456.09, 54946.13, 41629.56, -32627.00, 0.000, 0.000, 0.000, 20:31:47.387, 1559237507387
83, 27855.48, -29856.99, 33788.04, 35126.52, 42442.41, 54998.05, 41615.32, -32647.22, 0.000, 0.000, 0.000, 20:31:47.387, 1559237507387
84, 27846.65, -29820.13, 33770.54, 35115.24, 42427.05, 55006.55, 41600.51, -32290.20, 0.000, 0.000, 0.000, 20:31:47.387, 1559237507387
85, 27859.73, -30058.31, 33762.60, 35105.27, 42428.44, 54924.98, 41594.70, -31824.32, 0.000, 0.000, 0.000, 20:31:47.387, 1559237507387
86, 27861.65, -30121.12, 33773.17, 35117.00, 42439.21, 54907.35, 41604.66, -32100.14, 0.000, 0.000, 0.000, 20:31:47.387, 1559237507387
87, 27853.94, -30042.29, 33781.64, 35126.28, 42445.16, 54935.38, 41614.59, -32622.75, 0.000, 0.000, 0.000, 20:31:47.387, 1559237507387
88, 27857.31, -29848.54, 33776.46, 35125.45, 42442.77, 54992.87, 41608.26, -32653.86, 0.000, -0.026, 1.012, 20:31:47.387, 1559237507387
89, 27841.82, -29821.92, 33761.95, 35110.68, 42423.30, 54993.96, 41583.92, -32308.62, 0.000, 0.000, 0.000, 20:31:47.387, 1559237507387
90, 27829.96, -30081.54, 33758.04, 35105.18, 42423.05, 54907.35, 41576.28, -31847.66, 0.000, 0.000, 0.000, 20:31:47.388, 1559237507388
91, 27841.20, -30135.45, 33770.04, 35112.82, 42434.96, 54886.00, 41590.87, -32110.11, 0.000, 0.000, 0.000, 20:31:47.388, 1559237507388
92, 27842.99, -30051.34, 33776.26, 35120.47, 42438.81, 54912.11, 41605.51, -32646.02, 0.000, 0.000, 0.000, 20:31:47.388, 1559237507388
93, 27828.46, -29867.58, 33776.59, 35121.21, 42431.86, 54975.70, 41605.78, -32674.14, 0.000, 0.000, 0.000, 20:31:47.388, 1559237507388
94, 27806.40, -29842.42, 33755.11, 35099.14, 42408.72, 54979.23, 41566.66, -32321.89, 0.000, 0.000, 0.000, 20:31:47.388, 1559237507388
95, 27816.01, -30082.59, 33741.97, 35088.62, 42401.68, 54887.28, 41557.17, -31855.86, 0.000, 0.000, 0.000, 20:31:47.388, 1559237507388
96, 27824.48, -30135.09, 33754.84, 35101.54, 42417.82, 54867.90, 41580.23, -32117.00, 0.000, 0.000, 0.000, 20:31:47.388, 1559237507388
97, 27815.36, -30057.06, 33764.07, 35113.38, 42424.35, 54893.02, 41592.08, -32644.88, 0.000, 0.000, 0.000, 20:31:47.388, 1559237507388
98, 27800.05, -29886.52, 33749.41, 35100.33, 42408.37, 54942.91, 41583.36, -32681.85, 0.000, -0.020, 1.016, 20:31:47.388, 1559237507388
99, 27803.51, -29849.10, 33728.69, 35060.68, 42391.45, 54949.06, 41558.02, -32342.77, 0.000, 0.000, 0.000, 20:31:47.388, 1559237507388
100, 27813.04, -30078.88, 33728.18, 35062.71, 42395.69, 54869.48, 41550.28, -31868.91, 0.000, 0.000, 0.000, 20:31:47.388, 1559237507388
101, 27817.75, -30123.22, 33746.19, 35086.18, 42413.11, 54857.35, 41565.79, -32127.19, 0.000, 0.000, 0.000, 20:31:47.388, 1559237507388
102, 27795.47, -30043.13, 33751.87, 35093.13, 42412.34, 54878.31, 41567.14, -32653.19, 0.000, 0.000, 0.000, 20:31:47.389, 1559237507389
103, 27785.88, -29894.05, 33752.79, 35093.07, 42407.92, 54931.38, 41562.38, -32698.01, 0.000, 0.000, 0.000, 20:31:47.389, 1559237507389
0, 24142.32, -32481.29, 30969.32, 32422.75, 40174.78, 50788.62, 37857.86, -35320.56, -0.004, -0.024, 1.016, 20:31:55.473, 1559237515473
1, 24146.81, -32337.86, 30967.69, 32417.31, 40167.04, 50833.23, 37855.94, -35404.36, 0.000, 0.000, 0.000, 20:31:55.473, 1559237515473
2, 24132.80, -32240.02, 30949.48, 32394.76, 40148.70, 50859.80, 37839.11, -35105.49, 0.000, 0.000, 0.000, 20:31:55.474, 1559237515474
3, 24119.72, -32459.02, 30924.93, 32378.04, 40133.70, 50781.55, 37826.59, -34629.29, 0.000, 0.000, 0.000, 20:31:55.474, 1559237515474
4, 24122.67, -32561.77, 30935.84, 32399.99, 40146.10, 50748.20, 37838.13, -34761.07, 0.000, 0.000, 0.000, 20:31:55.474, 1559237515474
5, 24124.82, -32484.41, 30952.90, 32403.48, 40162.17, 50770.91, 37845.04, -35328.52, 0.000, 0.000, 0.000, 20:31:55.474, 1559237515474
6, 24117.60, -32336.38, 30957.68, 32393.91, 40161.55, 50821.00, 37854.87, -35409.10, 0.000, 0.000, 0.000, 20:31:55.474, 1559237515474
7, 24099.29, -32249.99, 30942.88, 32381.28, 40141.79, 50851.56, 37848.61, -35108.24, -0.004, -0.024, 1.016, 20:31:55.474, 1559237515474
8, 24097.82, -32464.19, 30917.67, 32370.49, 40126.72, 50773.30, 37821.12, -34640.98, 0.000, 0.000, 0.000, 20:31:55.474, 1559237515474
9, 24112.19, -32562.04, 30929.45, 32382.74, 40140.85, 50741.88, 37824.05, -34760.14, 0.000, 0.000, 0.000, 20:31:55.474, 1559237515474
10, 24117.69, -32485.06, 30948.87, 32404.22, 40157.19, 50770.33, 37842.11, -35320.38, 0.000, 0.000, 0.000, 20:31:55.474, 1559237515474
11, 24109.13, -32353.95, 30951.29, 32401.80, 40152.11, 50818.61, 37837.90, -35406.59, 0.000, 0.000, 0.000, 20:31:55.475, 1559237515475
12, 24097.50, -32264.23, 30930.92, 32378.45, 40133.54, 50847.87, 37813.25, -35128.40, 0.000, 0.000, 0.000, 20:31:55.475, 1559237515475
13, 24105.82, -32462.78, 30918.81, 32372.70, 40131.01, 50779.29, 37803.13, -34663.09, 0.000, 0.000, 0.000, 20:31:55.475, 1559237515475
14, 24109.53, -32546.91, 30931.66, 32387.97, 40145.27, 50744.02, 37818.57, -34776.39, 0.000, 0.000, 0.000, 20:31:55.475, 1559237515475
15, 24104.14, -32493.76, 30939.31, 32397.04, 40150.17, 50759.65, 37831.49, -35342.96, 0.000, 0.000, 0.000, 20:31:55.475, 1559237515475
16, 24099.20, -32376.17, 30937.45, 32383.90, 40141.74, 50796.53, 37827.20, -35432.43, 0.000, 0.000, 0.000, 20:31:55.475, 1559237515475
17, 24075.02, -32287.59, 30920.75, 32361.62, 40122.86, 50825.21, 37813.99, -35146.57, -0.002, -0.028, 1.014, 20:31:55.476, 1559237515476
18, 24070.62, -32482.43, 30908.35, 32358.20, 40115.70, 50758.98, 37806.28, -34673.34, 0.000, 0.000, 0.000, 20:31:55.476, 1559237515476
19, 24081.28, -32583.21, 30917.67, 32367.02, 40126.41, 50716.55, 37809.90, -34778.11, 0.000, 0.000, 0.000, 20:31:55.476, 1559237515476
20, 24082.28, -32526.19, 30934.16, 32377.10, 40137.83, 50737.09, 37822.73, -35338.31, 0.000, 0.000, 0.000, 20:31:55.476, 1559237515476
21, 24078.84, -32393.15, 30935.91, 32370.44, 40134.55, 50780.73, 37814.90, -35430.96, 0.000, 0.000, 0.000, 20:31:55.476, 1559237515476
22, 24071.78, -32282.69, 30916.93, 32346.97, 40113.80, 50806.68, 37796.48, -35157.66, 0.000, 0.000, 0.000, 20:31:55.476, 1559237515476
23, 24075.94, -32485.00, 30912.08, 32346.19, 40118.72, 50749.61, 37794.18, -34678.37, 0.000, 0.000, 0.000, 20:31:55.476, 1559237515476
24, 24086.31, -32582.20, 30925.92, 32366.38, 40136.24, 50720.15, 37804.91, -34772.18, 0.000, 0.000, 0.000, 20:31:55.476, 1559237515476
25, 24092.30, -32500.20, 30939.78, 32394.96, 40148.67, 50746.08, 37827.80, -35334.89, 0.000, 0.000, 0.000, 20:31:55.476, 1559237515476
26, 24089.73, -32362.17, 30937.94, 32394.63, 40142.73, 50792.10, 37825.45, -35435.20, 0.000, 0.000, 0.000, 20:31:55.476, 1559237515476
27, 24074.15, -32261.03, 30922.72, 32354.22, 40121.74, 50815.93, 37795.10, -35156.66, 0.002, -0.028, 1.020, 20:31:55.476, 1559237515476
28, 24076.05, -32456.21, 30915.84, 32353.79, 40118.83, 50752.81, 37790.70, -34686.64, 0.000, 0.000, 0.000, 20:31:55.476, 1559237515476
29, 24079.80, -32581.02, 30911.61, 32363.94, 40119.23, 50712.30, 37796.08, -34781.08, 0.000, 0.000, 0.000, 20:31:55.476, 1559237515476
30, 24086.42, -32527.35, 30926.95, 32380.52, 40129.72, 50729.85, 37804.53, -35359.12, 0.000, 0.000, 0.000, 20:31:55.476, 1559237515476
31, 24072.85, -32383.90, 30933.94, 32373.15, 40129.72, 50772.84, 37800.91, -35461.60, 0.000, 0.000, 0.000, 20:31:55.477, 1559237515477
32, 24051.57, -32278.44, 30916.28, 32348.76, 40106.89, 50803.97, 37776.04, -35179.79, 0.000, 0.000, 0.000, 20:31:55.477, 1559237515477
33, 24069.68, -32471.00, 30907.50, 32347.35, 40105.69, 50742.17, 37773.98, -34703.92, 0.000, 0.000, 0.000, 20:31:55.477, 1559237515477
34, 24075.67, -32577.02, 30916.62, 32359.09, 40117.76, 50701.60, 37784.59, -34793.04, 0.000, 0.000, 0.000, 20:31:55.477, 1559237515477
35, 24055.86, -32520.42, 30934.54, 32373.66, 40130.45, 50721.98, 37790.52, -35353.21, 0.000, 0.000, 0.000, 20:31:55.477, 1559237515477
36, 24057.23, -32373.33, 30941.74, 32379.83, 40133.07, 50771.96, 37800.24, -35463.19, 0.002, -0.028, 1.020, 20:31:55.477, 1559237515477
37, 24058.37, -32252.29, 30916.91, 32359.49, 40113.94, 50802.70, 37788.66, -35188.53, 0.000, 0.000, 0.000, 20:31:55.477, 1559237515477
38, 24060.49, -32471.25, 30897.58, 32344.09, 40103.48, 50730.39, 37773.46, -34703.34, 0.000, 0.000, 0.000, 20:31:55.477, 1559237515477
39, 24061.27, -32598.63, 30910.12, 32350.37, 40110.90, 50685.29, 37778.49, -34790.36, 0.000, 0.000, 0.000, 20:31:55.477, 1559237515477
40, 24074.59, -32529.92, 30928.60, 32370.55, 40127.77, 50712.35, 37795.50, -35369.82, 0.000, 0.000, 0.000, 20:31:55.477, 1559237515477
41, 24055.59, -32386.92, 30924.15, 32364.83, 40117.78, 50754.02, 37787.14, -35473.00, 0.000, 0.000, 0.000, 20:31:55.477, 1559237515477
42, 24038.43, -32272.03, 30911.32, 32345.07, 40096.55, 50782.80, 37761.84, -35195.10, 0.000, 0.000, 0.000, 20:31:55.477, 1559237515477
43, 24045.49, -32482.25, 30895.65, 32337.79, 40089.57, 50714.16, 37745.52, -34725.49, 0.000, 0.000, 0.000, 20:31:55.477, 1559237515477
44, 24051.37, -32610.26, 30904.73, 32348.79, 40098.04, 50675.74, 37753.28, -34809.58, 0.000, 0.000, 0.000, 20:31:55.477, 1559237515477
45, 24058.25, -32536.38, 30926.39, 32377.95, 40114.99, 50705.78, 37777.35, -35369.87, 0.000, 0.000, 0.000, 20:31:55.478, 1559237515478
46, 24056.71, -32402.67, 30919.57, 32368.92, 40104.50, 50743.89, 37768.97, -35483.15, 0.002, -0.026, 1.016, 20:31:55.478, 1559237515478
47, 24043.75, -32286.47, 30905.85, 32334.26, 40091.79, 50772.61, 37748.50, -35212.89, 0.000, 0.000, 0.000, 20:31:55.478, 1559237515478
48, 24041.71, -32474.11, 30894.47, 32329.41, 40089.26, 50708.84, 37739.40, -34733.13, 0.000, 0.000, 0.000, 20:31:55.478, 1559237515478
49, 24063.31, -32587.30, 30918.23, 32354.73, 40115.73, 50684.84, 37763.90, -34804.70, 0.000, 0.000, 0.000, 20:31:55.478, 1559237515478
50, 24059.48, -32532.47, 30930.48, 32371.61, 40118.59, 50705.64, 37778.43, -35371.97, 0.000, 0.000, 0.000, 20:31:55.478, 1559237515478
51, 24039.52, -32409.38, 30913.65, 32360.25, 40101.22, 50737.88, 37763.38, -35488.64, 0.000, 0.000, 0.000, 20:31:55.478, 1559237515478
52, 24040.96, -32280.61, 30901.58, 32343.04, 40089.55, 50770.22, 37745.25, -35219.80, 0.000, 0.000, 0.000, 20:31:55.478, 1559237515478
53, 24051.37, -32469.46, 30887.61, 32330.63, 40081.95, 50698.18, 37732.78, -34732.02, 0.000, 0.000, 0.000, 20:31:55.478, 1559237515478
54, 24056.15, -32595.55, 30899.77, 32346.08, 40093.75, 50663.54, 37745.97, -34800.05, 0.000, 0.000, 0.000, 20:31:55.479, 1559237515479
55, 24048.71, -32550.75, 30913.60, 32359.49, 40102.22, 50685.24, 37756.48, -35387.88, 0.000, 0.000, 0.000, 20:31:55.479, 1559237515479
56, 24043.32, -32404.24, 30921.42, 32363.20, 40104.35, 50733.12, 37764.12, -35503.04, 0.002, -0.028, 1.022, 20:31:55.479, 1559237515479
57, 24023.50, -32278.85, 30896.37, 32336.94, 40077.93, 50759.63, 37738.48, -35224.56, 0.000, 0.000, 0.000, 20:31:55.479, 1559237515479
58, 24026.47, -32473.91, 30883.47, 32323.15, 40072.45, 50692.26, 37721.83, -34742.37, 0.000, 0.000, 0.000, 20:31:55.479, 1559237515479
59, 24043.26, -32594.77, 30894.18, 32337.70, 40085.10, 50658.64, 37738.64, -34799.03, 0.000, 0.000, 0.000, 20:31:55.480, 1559237515480
60, 24038.70, -32529.36, 30910.74, 32360.05, 40098.34, 50686.22, 37761.62, -35372.84, 0.000, 0.000, 0.000, 20:31:55.480, 1559237515480
61, 24039.88, -32406.05, 30911.68, 32370.20, 40096.32, 50724.80, 37764.86, -35494.21, 0.000, 0.000, 0.000, 20:31:55.480, 1559237515480
62, 24023.30, -32296.26, 30896.86, 32338.68, 40076.32, 50754.06, 37732.18, -35239.18, 0.000, 0.000, 0.000, 20:31:55.480, 1559237515480
63, 24028.26, -32474.80, 30892.70, 32326.19, 40077.28, 50695.07, 37720.89, -34752.96, 0.000, 0.000, 0.000, 20:31:55.480, 1559237515480
64, 24031.77, -32581.33, 30893.78, 32336.18, 40084.23, 50650.95, 37725.63, -34808.57, 0.000, 0.000, 0.000, 20:31:55.480, 1559237515480
65, 24040.53, -32521.14, 30916.11, 32359.58, 40102.38, 50677.91, 37753.95, -35371.46, 0.000, 0.000, 0.000, 20:31:55.480, 1559237515480
66, 24033.24, -32402.92, 30912.21, 32355.65, 40097.11, 50719.57, 37751.74, -35492.16, 0.000, -0.024, 1.018, 20:31:55.480, 1559237515480
67, 24021.31, -32286.24, 30885.37, 32330.90, 40071.13, 50750.39, 37718.52, -35220.67, 0.000, 0.000, 0.000, 20:31:55.480, 1559237515480
68, 24027.25, -32465.95, 30883.72, 32332.67, 40073.19, 50696.62, 37718.46, -34740.73, 0.000, 0.000, 0.000, 20:31:55.480, 1559237515480
69, 24024.59, -32595.97, 30894.94, 32345.61, 40083.25, 50654.68, 37730.77, -34797.24, 0.000, 0.000, 0.000, 20:31:55.480, 1559237515480
70, 24015.96, -32533.50, 30910.67, 32358.48, 40092.70, 50669.12, 37738.59, -35373.40, 0.000, 0.000, 0.000, 20:31:55.480, 1559237515480
71, 24012.52, -32414.74, 30911.23, 32355.74, 40087.72, 50709.09, 37736.23, -35507.62, 0.000, 0.000, 0.000, 20:31:55.480, 1559237515480
72, 24000.56, -32297.87, 30890.80, 32335.46, 40064.56, 50740.56, 37718.48, -35235.56, 0.000, 0.000, 0.000, 20:31:55.480, 1559237515480
73, 24004.01, -32482.98, 30871.74, 32320.60, 40058.91, 50676.99, 37704.96, -34750.34, 0.000, 0.000, 0.000, 20:31:55.481, 1559237515481
74, 24012.66, -32601.18, 30887.90, 32335.40, 40079.63, 50637.18, 37719.80, -34797.55, 0.000, 0.000, 0.000, 20:31:55.481, 1559237515481
75, 24011.88, -32541.21, 30902.22, 32353.05, 40089.98, 50656.92, 37732.71, -35382.27, 0.000, 0.000, 0.000, 20:31:55.481, 1559237515481
76, 24010.09, -32390.02, 30891.74, 32344.34, 40072.83, 50688.52, 37721.68, -35510.35, -0.008, -0.028, 1.022, 20:31:55.481, 1559237515481
77, 24000.43, -32273.71, 30876.72, 32324.22, 40052.63, 50719.21, 37703.23, -35253.08, 0.000, 0.000, 0.000, 20:31:55.481, 1559237515481
78, 23985.68, -32508.13, 30864.27, 32304.19, 40052.58, 50658.42, 37688.39, -34772.41, 0.000, 0.000, 0.000, 20:31:55.481, 1559237515481
79, 23989.57, -32646.67, 30875.87, 32308.28, 40068.05, 50621.45, 37701.27, -34817.42, 0.000, 0.000, 0.000, 20:31:55.481, 1559237515481
80, 24006.89, -32580.04, 30895.54, 32333.41, 40079.14, 50644.76, 37723.29, -35397.79, 0.000, 0.000, 0.000, 20:31:55.481, 1559237515481
81, 24001.39, -32452.70, 30893.60, 32331.28, 40072.45, 50683.07, 37719.37, -35535.72, 0.000, 0.000, 0.000, 20:31:55.481, 1559237515481
82, 23975.44, -32337.25, 30875.27, 32304.95, 40049.27, 50714.18, 37692.55, -35258.85, 0.000, 0.000, 0.000, 20:31:55.481, 1559237515481
83, 23984.65, -32501.13, 30869.26, 32298.87, 40049.03, 50661.81, 37689.67, -34776.32, 0.000, 0.000, 0.000, 20:31:55.481, 1559237515481
84, 23990.08, -32630.44, 30876.88, 32311.30, 40060.72, 50619.79, 37703.57, -34817.82, 0.000, 0.000, 0.000, 20:31:55.481, 1559237515481
85, 23992.67, -32587.41, 30895.88, 32324.49, 40073.39, 50636.15, 37726.30, -35379.14, 0.000, 0.000, 0.000, 20:31:55.481, 1559237515481
86, 23986.08, -32452.07, 30894.20, 32320.04, 40068.92, 50670.24, 37715.57, -35486.16, -0.008, -0.024, 1.018, 20:31:55.482, 1559237515482
87, 23972.94, -32318.39, 30872.03, 32298.92, 40043.77, 50701.02, 37681.08, -35205.65, 0.000, 0.000, 0.000, 20:31:55.482, 1559237515482
88, 23977.54, -32506.74, 30854.71, 32288.84, 40034.25, 50638.48, 37671.47, -34700.90, 0.000, 0.000, 0.000, 20:31:55.482, 1559237515482
89, 23992.21, -32636.68, 30875.78, 32311.70, 40056.20, 50606.98, 37693.96, -34741.11, 0.000, 0.000, 0.000, 20:31:55.482, 1559237515482
90, 23988.32, -32572.75, 30891.56, 32326.46, 40066.13, 50626.32, 37708.09, -35320.43, 0.000, 0.000, 0.000, 20:31:55.482, 1559237515482
91, 23991.38, -32429.34, 30889.60, 32324.40, 40060.32, 50662.86, 37705.63, -35451.56, 0.000, 0.000, 0.000, 20:31:55.482, 1559237515482
92, 23987.44, -32299.63, 30877.55, 32302.92, 40039.86, 50700.66, 37688.15, -35188.02, 0.000, 0.000, 0.000, 20:31:55.482, 1559237515482
93, 23981.07, -32511.13, 30862.30, 32284.70, 40031.39, 50636.96, 37670.51, -34702.91, 0.000, 0.000, 0.000, 20:31:55.482, 1559237515482
94, 23984.61, -32655.92, 30869.93, 32300.08, 40046.08, 50596.43, 37681.33, -34732.02, 0.000, 0.000, 0.000, 20:31:55.482, 1559237515482
95, 23980.87, -32591.05, 30883.38, 32328.62, 40063.85, 50620.82, 37699.81, -35313.34, 0.000, 0.000, 0.000, 20:31:55.484, 1559237515484
96, 23981.86, -32447.96, 30884.75, 32321.09, 40065.68, 50661.10, 37704.15, -35443.47, -0.006, -0.022, 1.014, 20:31:55.484, 1559237515484
97, 23976.80, -32311.88, 30875.07, 32289.91, 40044.07, 50696.35, 37680.82, -35187.14, 0.000, 0.000, 0.000, 20:31:55.484, 1559237515484
98, 23968.89, -32499.90, 30859.40, 32282.69, 40029.83, 50631.15, 37665.19, -34702.58, 0.000, 0.000, 0.000, 20:31:55.485, 1559237515485
99, 23983.06, -32632.67, 30863.94, 32303.50, 40041.34, 50592.14, 37676.93, -34720.13, 0.000, 0.000, 0.000, 20:31:55.485, 1559237515485
100, 24003.78, -32561.06, 30883.81, 32322.05, 40057.92, 50611.93, 37689.80, -35315.57, 0.000, 0.000, 0.000, 20:31:55.486, 1559237515486
101, 23982.95, -32458.24, 30878.15, 32310.92, 40044.76, 50643.69, 37684.14, -35464.89, 0.000, 0.000, 0.000, 20:31:55.486, 1559237515486
102, 23963.30, -32334.84, 30859.67, 32290.13, 40023.21, 50682.22, 37664.12, -35204.80, 0.000, 0.000, 0.000, 20:31:55.486, 1559237515486
103, 23968.24, -32516.15, 30845.43, 32281.13, 40018.52, 50621.31, 37649.43, -34736.64, 0.000, 0.000, 0.000, 20:31:55.486, 1559237515486
104, 23975.15, -32641.91, 30854.35, 32287.81, 40027.46, 50576.86, 37656.27, -34749.72, 0.000, 0.000, 0.000, 20:31:55.486, 1559237515486
105, 23986.95, -32578.45, 30868.07, 32301.04, 40036.84, 50591.47, 37670.38, -35332.79, 0.000, 0.000, 0.000, 20:31:55.486, 1559237515486
106, 23987.62, -32476.17, 30866.66, 32297.93, 40034.95, 50629.07, 37668.86, -35486.46, -0.008, -0.026, 1.018, 20:31:55.486, 1559237515486
107, 23964.04, -32352.61, 30844.65, 32275.43, 40008.53, 50663.00, 37641.79, -35224.40, 0.000, 0.000, 0.000, 20:31:55.486, 1559237515486
108, 23962.16, -32534.93, 30825.27, 32263.02, 39994.40, 50596.17, 37627.04, -34746.10, 0.000, 0.000, 0.000, 20:31:55.487, 1559237515487
109, 23967.37, -32655.25, 30841.85, 32283.88, 40014.16, 50559.73, 37644.72, -34763.27, 0.000, 0.000, 0.000, 20:31:55.487, 1559237515487
110, 23964.33, -32591.88, 30867.42, 32304.84, 40029.36, 50582.64, 37664.61, -35354.25, 0.000, 0.000, 0.000, 20:31:55.487, 1559237515487
111, 23975.69, -32469.69, 30873.05, 32308.62, 40030.21, 50627.04, 37668.79, -35487.80, 0.000, 0.000, 0.000, 20:31:55.487, 1559237515487
112, 23960.42, -32340.65, 30851.44, 32285.44, 40004.77, 50661.66, 37641.95, -35240.79, 0.000, 0.000, 0.000, 20:31:55.487, 1559237515487
113, 23963.53, -32512.06, 30835.41, 32273.84, 40000.99, 50602.02, 37629.14, -34752.98, 0.000, 0.000, 0.000, 20:31:55.487, 1559237515487
114, 23966.90, -32651.74, 30831.53, 32279.92, 40004.50, 50551.78, 37636.07, -34762.48, 0.000, 0.000, 0.000, 20:31:55.487, 1559237515487
115, 23960.69, -32599.13, 30850.39, 32303.01, 40020.82, 50573.66, 37653.81, -35337.86, 0.000, 0.000, 0.000, 20:31:55.487, 1559237515487
116, 23952.80, -32481.73, 30856.72, 32292.64, 40021.31, 50616.91, 37657.39, -35483.66, -0.008, -0.020, 1.014, 20:31:55.488, 1559237515488
117, 23941.51, -32342.24, 30842.30, 32275.20, 40005.22, 50658.62, 37642.66, -35242.11, 0.000, 0.000, 0.000, 20:31:55.488, 1559237515488
118, 23942.70, -32514.10, 30828.78, 32264.83, 39996.46, 50601.35, 37626.68, -34757.21, 0.000, 0.000, 0.000, 20:31:55.488, 1559237515488
119, 23955.73, -32660.01, 30836.51, 32279.74, 40009.04, 50557.66, 37639.84, -34759.11, 0.000, 0.000, 0.000, 20:31:55.488, 1559237515488
120, 23958.79, -32597.38, 30850.84, 32294.65, 40018.09, 50569.37, 37651.13, -35340.95, 0.000, 0.000, 0.000, 20:31:55.951, 1559237515951
121, 23951.26, -32487.75, 30852.45, 32294.34, 40015.79, 50606.07, 37649.72, -35499.53, 0.000, 0.000, 0.000, 20:31:55.951, 1559237515951
122, 23925.33, -32358.22, 30830.16, 32269.95, 39991.54, 50640.73, 37623.10, -35250.69, 0.000, 0.000, 0.000, 20:31:55.951, 1559237515951
123, 23932.44, -32533.34, 30815.63, 32259.13, 39986.29, 50582.82, 37612.13, -34760.45, 0.000, 0.000, 0.000, 20:31:55.951, 1559237515951
124, 23942.81, -32667.90, 30824.91, 32268.77, 39998.82, 50541.16, 37628.31, -34762.17, 0.000, 0.000, 0.000, 20:31:55.951, 1559237515951
125, 23943.81, -32620.00, 30843.60, 32279.34, 40012.55, 50557.43, 37641.19, -35342.00, 0.000, 0.000, 0.000, 20:31:55.951, 1559237515951
126, 23952.73, -32503.06, 30842.12, 32277.73, 40006.92, 50592.19, 37634.68, -35517.17, -0.006, -0.024, 1.012, 20:31:55.951, 1559237515951
127, 23937.58, -32354.62, 30823.46, 32262.82, 39984.43, 50632.31, 37619.10, -35268.17, 0.000, 0.000, 0.000, 20:31:55.951, 1559237515951
128, 23930.02, -32539.51, 30807.21, 32253.39, 39974.95, 50576.86, 37610.45, -34777.19, 0.000, 0.000, 0.000, 20:31:55.951, 1559237515951
129, 23920.23, -32669.06, 30821.13, 32264.94, 39989.30, 50536.93, 37621.54, -34758.37, 0.000, 0.000, 0.000, 20:31:55.951, 1559237515951
130, 23924.93, -32610.37, 30841.81, 32287.16, 40005.80, 50557.54, 37635.93, -35331.82, 0.000, 0.000, 0.000, 20:31:55.952, 1559237515952
131, 23933.38, -32509.70, 30838.01, 32288.14, 39995.90, 50588.39, 37628.45, -35512.34, 0.000, 0.000, 0.000, 20:31:55.952, 1559237515952
132, 23913.71, -32350.04, 30822.07, 32246.82, 39974.26, 50622.45, 37600.44, -35278.67, 0.000, 0.000, 0.000, 20:31:55.952, 1559237515952
133, 23903.83, -32517.65, 30802.00, 32235.19, 39969.07, 50563.80, 37585.35, -34783.79, 0.000, 0.000, 0.000, 20:31:55.952, 1559237515952
134, 23911.56, -32688.04, 30813.85, 32251.13, 39977.90, 50515.68, 37599.79, -34769.30, 0.000, 0.000, 0.000, 20:31:55.952, 1559237515952
135, 23913.64, -32633.19, 30842.37, 32273.04, 39997.04, 50539.01, 37623.57, -35344.97, 0.000, 0.000, 0.000, 20:31:55.952, 1559237515952
136, 23911.52, -32521.61, 30839.93, 32273.86, 39993.62, 50574.31, 37615.86, -35526.82, -0.006, -0.022, 1.014, 20:31:55.952, 1559237515952
137, 23902.15, -32378.06, 30821.74, 32257.28, 39977.25, 50616.21, 37595.21, -35286.65, 0.000, 0.000, 0.000, 20:31:55.952, 1559237515952
138, 23895.47, -32550.55, 30800.57, 32238.75, 39965.48, 50553.07, 37583.77, -34801.55, 0.000, 0.000, 0.000, 20:31:55.952, 1559237515952
139, 23905.32, -32694.72, 30809.73, 32244.98, 39977.19, 50502.96, 37593.93, -34770.48, 0.000, 0.000, 0.000, 20:31:55.952, 1559237515952
140, 23914.44, -32643.71, 30825.65, 32259.96, 39988.25, 50525.13, 37605.42, -35354.54, 0.000, 0.000, 0.000, 20:31:55.952, 1559237515952
141, 23910.46, -32524.76, 30826.54, 32263.74, 39985.23, 50567.27, 37604.53, -35536.39, 0.000, 0.000, 0.000, 20:31:55.952, 1559237515952
142, 23894.71, -32378.36, 30815.52, 32248.22, 39970.93, 50611.48, 37590.80, -35288.46, 0.000, 0.000, 0.000, 20:31:55.952, 1559237515952
143, 23887.73, -32562.00, 30794.73, 32231.44, 39955.04, 50548.16, 37575.05, -34804.64, 0.000, 0.000, 0.000, 20:31:55.953, 1559237515953
144, 23901.50, -32704.47, 30806.22, 32249.83, 39974.28, 50503.45, 37586.54, -34788.14, 0.000, 0.000, 0.000, 20:31:55.953, 1559237515953
145, 23910.78, -32647.13, 30823.59, 32268.12, 39990.76, 50522.63, 37608.95, -35356.41, -0.004, -0.028, 1.022, 20:31:55.953, 1559237515953
146, 23907.00, -32527.46, 30823.08, 32262.80, 39986.18, 50559.71, 37609.16, -35528.36, 0.000, 0.000, 0.000, 20:31:55.953, 1559237515953
147, 23899.56, -32376.19, 30809.24, 32243.80, 39967.51, 50603.32, 37590.11, -35288.02, 0.000, 0.000, 0.000, 20:31:55.953, 1559237515953
148, 23890.08, -32559.38, 30793.35, 32237.99, 39954.46, 50542.07, 37572.97, -34805.66, 0.000, 0.000, 0.000, 20:31:55.953, 1559237515953
149, 23892.54, -32705.79, 30803.43, 32237.90, 39966.57, 50495.18, 37582.82, -34791.18, 0.000, 0.000, 0.000, 20:31:55.953, 1559237515953
150, 23894.10, -32656.23, 30821.13, 32253.07, 39983.61, 50516.37, 37600.68, -35365.42, 0.000, 0.000, 0.000, 20:31:55.953, 1559237515953
151, 23885.43, -32554.91, 30816.10, 32248.83, 39973.48, 50547.62, 37600.35, -35539.68, 0.000, 0.000, 0.000, 20:31:55.953, 1559237515953
152, 23871.04, -32402.52, 30796.86, 32227.82, 39952.16, 50587.09, 37576.28, -35294.25, 0.000, 0.000, 0.000, 20:31:55.953, 1559237515953
153, 23867.71, -32557.77, 30780.01, 32220.69, 39944.69, 50532.02, 37561.43, -34809.73, 0.000, 0.000, 0.000, 20:31:55.953, 1559237515953
154, 23878.66, -32710.70, 30789.88, 32237.25, 39956.51, 50485.32, 37574.98, -34774.69, 0.000, 0.000, 0.000, 20:31:55.953, 1559237515953
155, 23894.53, -32647.54, 30815.52, 32262.04, 39979.87, 50513.55, 37599.34, -35356.12, -0.006, -0.026, 1.018, 20:31:55.953, 1559237515953
156, 23889.39, -32536.90, 30818.23, 32257.92, 39975.38, 50545.74, 37590.29, -35551.05, 0.000, 0.000, 0.000, 20:31:55.954, 1559237515954
157, 23873.81, -32389.24, 30801.62, 32237.65, 39955.80, 50589.66, 37574.00, -35307.53, 0.000, 0.000, 0.000, 20:31:55.954, 1559237515954
158, 23868.18, -32544.68, 30782.91, 32222.38, 39943.44, 50530.39, 37558.15, -34818.74, 0.000, 0.000, 0.000, 20:31:55.954, 1559237515954
159, 23887.64, -32700.38, 30787.16, 32227.10, 39954.90, 50479.38, 37568.61, -34776.68, 0.000, 0.000, 0.000, 20:31:55.954, 1559237515954
160, 23893.32, -32657.78, 30803.77, 32243.17, 39967.71, 50495.76, 37582.98, -35373.80, 0.000, 0.000, 0.000, 20:31:55.954, 1559237515954
161, 23879.26, -32565.15, 30808.50, 32253.41, 39967.45, 50531.77, 37585.13, -35561.00, 0.000, 0.000, 0.000, 20:31:55.954, 1559237515954
162, 23859.77, -32418.41, 30789.95, 32226.41, 39945.56, 50566.89, 37562.15, -35316.43, 0.000, 0.000, 0.000, 20:31:55.954, 1559237515954
163, 23858.21, -32585.02, 30772.96, 32207.48, 39932.80, 50512.26, 37545.61, -34828.46, 0.000, 0.000, 0.000, 20:31:55.954, 1559237515954
164, 23864.04, -32739.63, 30782.80, 32219.41, 39946.43, 50467.33, 37556.47, -34792.81, 0.000, 0.000, 0.000, 20:31:55.954, 1559237515954
165, 23864.76, -32685.78, 30800.66, 32238.66, 39958.68, 50484.50, 37574.89, -35379.19, -0.002, -0.028, 1.018, 20:31:55.954, 1559237515954
166, 23855.59, -32567.45, 30805.15, 32248.51, 39958.08, 50520.73, 37574.98, -35556.71, 0.000, 0.000, 0.000, 20:31:55.954, 1559237515954
167, 23844.64, -32414.41, 30790.76, 32230.50, 39939.44, 50562.64, 37555.11, -35323.67, 0.000, 0.000, 0.000, 20:31:55.954, 1559237515954
168, 23853.98, -32562.62, 30781.35, 32209.67, 39935.01, 50517.20, 37549.66, -34855.67, 0.000, 0.000, 0.000, 20:31:55.954, 1559237515954
169, 23867.84, -32723.31, 30782.02, 32219.77, 39942.19, 50463.62, 37549.01, -34795.38, 0.000, 0.000, 0.000, 20:31:55.954, 1559237515954
170, 23871.75, -32677.11, 30805.35, 32239.51, 39962.17, 50485.84, 37571.76, -35376.02, 0.000, 0.000, 0.000, 20:31:55.955, 1559237515955
171, 23855.23, -32559.54, 30801.96, 32236.27, 39955.60, 50516.98, 37576.50, -35561.87, 0.000, 0.000, 0.000, 20:31:55.955, 1559237515955
172, 23838.83, -32412.24, 30779.33, 32215.72, 39931.23, 50554.86, 37548.23, -35328.34, 0.000, 0.000, 0.000, 20:31:55.955, 1559237515955
173, 23841.69, -32566.31, 30765.01, 32203.19, 39923.32, 50501.17, 37530.66, -34857.25, 0.000, 0.000, 0.000, 20:31:55.955, 1559237515955
174, 23850.34, -32717.59, 30777.59, 32214.83, 39937.11, 50450.88, 37543.02, -34795.23, 0.000, 0.000, 0.000, 20:31:55.955, 1559237515955
175, 23849.69, -32682.18, 30794.33, 32236.04, 39949.50, 50472.85, 37562.57, -35368.86, -0.006, -0.028, 1.022, 20:31:55.955, 1559237515955
176, 23853.20, -32568.86, 30799.43, 32244.02, 39949.96, 50516.75, 37563.96, -35571.44, 0.000, 0.000, 0.000, 20:31:55.955, 1559237515955
177, 23848.91, -32397.24, 30786.76, 32229.78, 39934.81, 50563.18, 37549.25, -35338.60, 0.000, 0.000, 0.000, 20:31:55.955, 1559237515955
178, 23847.88, -32581.27, 30767.71, 32211.86, 39920.82, 50501.82, 37535.39, -34845.41, 0.000, 0.000, 0.000, 20:31:55.955, 1559237515955
179, 23850.41, -32743.94, 30771.96, 32220.04, 39930.65, 50445.72, 37546.32, -34783.87, 0.000, 0.000, 0.000, 20:31:55.955, 1559237515955
180, 23845.49, -32691.32, 30785.08, 32230.05, 39942.12, 50456.13, 37554.75, -35363.95, 0.000, 0.000, 0.000, 20:31:55.955, 1559237515955
181, 23837.71, -32582.47, 30790.51, 32232.51, 39942.07, 50499.38, 37558.20, -35578.30, 0.000, 0.000, 0.000, 20:31:55.955, 1559237515955
182, 23819.81, -32432.07, 30771.38, 32209.87, 39919.21, 50540.06, 37535.84, -35350.22, 0.000, 0.000, 0.000, 20:31:55.956, 1559237515956
183, 23817.55, -32584.10, 30750.90, 32197.87, 39908.34, 50484.34, 37520.80, -34863.11, 0.000, 0.000, 0.000, 20:31:55.956, 1559237515956
184, 23831.23, -32743.31, 30758.17, 32208.88, 39920.08, 50433.63, 37534.37, -34797.02, 0.000, 0.000, 0.000, 20:31:55.959, 1559237515959
185, 23837.46, -32689.58, 30779.13, 32226.79, 39934.65, 50447.30, 37550.10, -35380.46, -0.006, -0.030, 1.020, 20:31:55.959, 1559237515959
186, 23840.91, -32575.19, 30782.75, 32227.26, 39934.25, 50484.99, 37553.81, -35585.63, 0.000, 0.000, 0.000, 20:31:55.959, 1559237515959
187, 23822.44, -32427.64, 30766.97, 32210.38, 39915.39, 50528.15, 37532.60, -35368.46, 0.000, 0.000, 0.000, 20:31:55.960, 1559237515960
188, 23817.75, -32577.26, 30758.46, 32208.71, 39912.01, 50480.25, 37518.47, -34881.19, 0.000, 0.000, 0.000, 20:31:55.960, 1559237515960
189, 23828.70, -32734.98, 30762.91, 32198.85, 39919.19, 50425.76, 37524.98, -34801.91, 0.000, 0.000, 0.000, 20:31:55.960, 1559237515960
190, 23837.08, -32689.40, 30786.20, 32225.71, 39940.40, 50448.51, 37556.88, -35379.43, 0.000, 0.000, 0.000, 20:31:55.960, 1559237515960
191, 23839.61, -32576.77, 30791.85, 32233.29, 39942.68, 50487.58, 37552.79, -35587.75, 0.000, 0.000, 0.000, 20:31:55.960, 1559237515960
192, 23823.70, -32430.19, 30765.74, 32209.33, 39911.79, 50525.20, 37523.86, -35368.01, 0.000, 0.000, 0.000, 20:31:55.960, 1559237515960
193, 23813.21, -32590.00, 30746.12, 32189.53, 39899.54, 50468.74, 37505.76, -34885.98, 0.000, 0.000, 0.000, 20:31:55.960, 1559237515960
194, 23819.18, -32740.52, 30757.29, 32201.80, 39914.87, 50418.40, 37516.73, -34822.41, 0.000, 0.000, 0.000, 20:31:55.960, 1559237515960
195, 23833.31, -32691.35, 30780.03, 32223.82, 39930.68, 50438.36, 37543.17, -35386.74, -0.008, -0.026, 1.020, 20:31:55.960, 1559237515960
196, 23835.65, -32585.89, 30788.77, 32225.98, 39929.18, 50473.52, 37532.20, -35599.87, 0.000, 0.000, 0.000, 20:31:55.960, 1559237515960
197, 23805.88, -32431.29, 30765.70, 32199.01, 39905.24, 50517.55, 37507.50, -35385.25, 0.000, 0.000, 0.000, 20:31:55.960, 1559237515960
198, 23803.00, -32584.91, 30755.28, 32191.32, 39904.01, 50472.29, 37512.20, -34896.68, 0.000, 0.000, 0.000, 20:31:55.960, 1559237515960
199, 23824.79, -32739.45, 30761.72, 32203.63, 39916.08, 50417.04, 37518.39, -34809.58, 0.000, 0.000, 0.000, 20:31:55.960, 1559237515960
200, 23817.44, -32697.61, 30775.04, 32216.11, 39925.85, 50425.22, 37528.55, -35380.55, 0.000, 0.000, 0.000, 20:31:55.960, 1559237515960
201, 23810.24, -32594.38, 30783.18, 32219.68, 39928.42, 50464.40, 37533.11, -35600.34, 0.000, 0.000, 0.000, 20:31:55.960, 1559237515960
202, 23807.83, -32435.20, 30768.18, 32199.23, 39912.26, 50512.13, 37519.28, -35377.27, 0.000, 0.000, 0.000, 20:31:55.961, 1559237515961
203, 23808.21, -32569.89, 30756.22, 32188.12, 39902.94, 50463.11, 37504.19, -34896.01, 0.000, 0.000, 0.000, 20:31:55.961, 1559237515961
204, 23804.27, -32747.88, 30758.23, 32195.72, 39911.90, 50407.21, 37503.41, -34813.60, 0.000, 0.000, 0.000, 20:31:55.961, 1559237515961
205, 23802.24, -32715.46, 30777.84, 32220.89, 39927.88, 50429.98, 37524.75, -35372.35, -0.008, -0.026, 1.020, 20:31:55.961, 1559237515961
206, 23802.66, -32606.10, 30777.44, 32228.67, 39923.61, 50463.69, 37521.56, -35596.76, 0.000, 0.000, 0.000, 20:31:55.961, 1559237515961
207, 23789.94, -32440.79, 30760.67, 32192.79, 39905.93, 50508.86, 37500.88, -35385.58, 0.000, 0.000, 0.000, 20:31:55.962, 1559237515962
208, 23796.09, -32589.98, 30744.87, 32178.89, 39895.31, 50460.16, 37495.65, -34888.39, 0.000, 0.000, 0.000, 20:31:55.962, 1559237515962
209, 23807.87, -32758.31, 30753.88, 32189.80, 39908.32, 50404.59, 37503.45, -34800.10, 0.000, 0.000, 0.000, 20:31:55.962, 1559237515962
210, 23799.85, -32714.66, 30767.20, 32203.86, 39919.30, 50415.83, 37513.31, -35380.95, 0.000, 0.000, 0.000, 20:31:55.962, 1559237515962
211, 23803.56, -32590.99, 30777.46, 32212.10, 39925.73, 50454.23, 37517.20, -35617.37, 0.000, 0.000, 0.000, 20:31:55.962, 1559237515962
212, 23791.38, -32424.89, 30764.92, 32196.88, 39906.91, 50502.34, 37503.81, -35402.64, 0.000, 0.000, 0.000, 20:31:55.963, 1559237515963
213, 23779.75, -32579.95, 30740.24, 32177.84, 39888.79, 50448.13, 37485.53, -34920.75, 0.000, 0.000, 0.000, 20:31:55.963, 1559237515963
214, 23790.35, -32753.17, 30742.88, 32187.03, 39898.62, 50393.77, 37502.07, -34818.38, 0.000, 0.000, 0.000, 20:31:55.963, 1559237515963
215, 23790.37, -32707.91, 30761.14, 32207.46, 39914.05, 50415.36, 37511.55, -35386.81, -0.008, -0.026, 1.026, 20:31:55.963, 1559237515963
216, 23788.36, -32595.50, 30767.26, 32206.83, 39912.86, 50444.00, 37503.50, -35624.41, 0.000, 0.000, 0.000, 20:31:55.963, 1559237515963
217, 23773.83, -32443.64, 30751.44, 32187.16, 39892.90, 50486.69, 37486.80, -35411.33, 0.000, 0.000, 0.000, 20:31:55.963, 1559237515963
218, 23764.11, -32585.76, 30729.91, 32170.19, 39876.61, 50434.12, 37468.90, -34934.14, 0.000, 0.000, 0.000, 20:31:55.963, 1559237515963
219, 23772.04, -32766.31, 30740.00, 32182.91, 39891.52, 50384.16, 37482.62, -34832.42, 0.000, 0.000, 0.000, 20:31:55.963, 1559237515963
220, 23784.69, -32716.63, 30762.44, 32207.97, 39911.59, 50410.47, 37502.79, -35395.35, 0.000, 0.000, 0.000, 20:31:55.963, 1559237515963
221, 23787.53, -32605.88, 30763.17, 32209.78, 39908.41, 50440.58, 37503.63, -35623.29, 0.000, 0.000, 0.000, 20:31:55.963, 1559237515963
222, 23771.73, -32442.57, 30741.47, 32187.49, 39881.46, 50479.38, 37482.15, -35421.05, 0.000, 0.000, 0.000, 20:31:55.963, 1559237515963
223, 23775.28, -32573.82, 30725.31, 32172.70, 39871.64, 50432.55, 37466.21, -34936.69, 0.000, 0.000, 0.000, 20:31:55.963, 1559237515963
224, 23774.34, -32766.14, 30724.57, 32166.46, 39875.80, 50367.38, 37471.40, -34831.75, 0.000, 0.000, 0.000, 20:31:55.963, 1559237515963
225, 23773.11, -32721.61, 30744.51, 32182.89, 39896.16, 50385.10, 37492.88, -35396.24, 0.000, -0.022, 1.022, 20:31:55.963, 1559237515963
226, 23762.45, -32607.71, 30744.58, 32183.09, 39891.69, 50418.92, 37491.32, -35635.30, 0.000, 0.000, 0.000, 20:31:55.963, 1559237515963
227, 23754.52, -32446.15, 30732.60, 32179.76, 39876.65, 50470.89, 37478.20, -35424.68, 0.000, 0.000, 0.000, 20:31:55.963, 1559237515963
228, 23746.02, -32586.38, 30716.10, 32150.14, 39866.52, 50423.84, 37464.27, -34941.45, 0.000, 0.000, 0.000, 20:31:55.963, 1559237515963
229, 23759.21, -32756.50, 30720.77, 32154.84, 39875.36, 50366.37, 37469.37, -34830.99, 0.000, 0.000, 0.000, 20:31:55.963, 1559237515963
230, 23774.46, -32703.26, 30739.48, 32177.97, 39893.41, 50382.02, 37490.16, -35401.27, 0.000, 0.000, 0.000, 20:31:55.963, 1559237515963
231, 23764.33, -32595.79, 30747.95, 32182.98, 39894.71, 50416.55, 37491.38, -35641.40, 0.000, 0.000, 0.000, 20:31:55.964, 1559237515964
232, 23748.50, -32433.65, 30737.54, 32165.97, 39878.42, 50463.93, 37472.86, -35435.40, 0.000, 0.000, 0.000, 20:31:55.964, 1559237515964
233, 23746.63, -32562.11, 30724.01, 32154.86, 39870.93, 50415.92, 37454.41, -34955.51, 0.000, 0.000, 0.000, 20:31:55.964, 1559237515964
234, 23759.63, -32736.12, 30727.37, 32163.31, 39880.68, 50358.88, 37462.80, -34844.40, 0.000, 0.000, 0.000, 20:31:55.964, 1559237515964
235, 23765.09, -32701.76, 30745.96, 32182.91, 39898.20, 50378.84, 37485.77, -35406.10, 0.000, -0.026, 1.026, 20:31:55.964, 1559237515964
236, 23765.83, -32593.18, 30746.41, 32185.37, 39896.32, 50412.32, 37487.20, -35653.45, 0.000, 0.000, 0.000, 20:31:55.964, 1559237515964
237, 23755.19, -32435.38, 30733.94, 32171.92, 39881.30, 50466.55, 37478.38, -35441.89, 0.000, 0.000, 0.000, 20:31:55.964, 1559237515964
238, 23748.71, -32569.08, 30721.22, 32160.54, 39873.32, 50421.93, 37464.00, -34955.02, 0.000, 0.000, 0.000, 20:31:55.964, 1559237515964
239, 23755.52, -32748.19, 30722.11, 32163.67, 39876.38, 50354.32, 37462.62, -34836.55, 0.000, 0.000, 0.000, 20:31:55.964, 1559237515964
240, 23754.03, -32717.01, 30743.50, 32182.73, 39894.46, 50366.68, 37477.79, -35400.47, 0.000, 0.000, 0.000, 20:31:56.431, 1559237516431
241, 23757.47, -32622.79, 30754.99, 32188.03, 39903.52, 50404.84, 37485.39, -35642.52, 0.000, 0.000, 0.000, 20:31:56.432, 1559237516432
242, 23743.81, -32450.48, 30736.17, 32169.52, 39879.47, 50454.57, 37463.71, -35434.20, 0.000, 0.000, 0.000, 20:31:56.432, 1559237516432
243, 23742.16, -32572.88, 30717.87, 32157.65, 39862.73, 50409.84, 37441.70, -34952.81, 0.000, 0.000, 0.000, 20:31:56.432, 1559237516432
244, 23752.66, -32763.59, 30726.74, 32169.93, 39873.16, 50355.15, 37448.16, -34829.58, 0.000, 0.000, 0.000, 20:31:56.433, 1559237516433
245, 23754.34, -32715.91, 30750.43, 32190.73, 39896.95, 50375.29, 37476.92, -35399.77, -0.004, -0.026, 1.018, 20:31:56.433, 1559237516433
246, 23762.45, -32598.03, 30756.85, 32192.05, 39900.88, 50410.43, 37484.05, -35645.09, 0.000, 0.000, 0.000, 20:31:56.433, 1559237516433
247, 23750.65, -32432.38, 30737.18, 32169.34, 39877.59, 50455.57, 37457.07, -35450.80, 0.000, 0.000, 0.000, 20:31:56.433, 1559237516433
248, 23735.12, -32577.04, 30714.16, 32152.63, 39862.95, 50409.26, 37439.17, -34977.68, 0.000, 0.000, 0.000, 20:31:56.433, 1559237516433
249, 23738.38, -32762.76, 30715.07, 32170.78, 39867.71, 50346.18, 37443.73, -34841.36, 0.000, 0.000, 0.000, 20:31:56.434, 1559237516434
250, 23740.44, -32722.21, 30733.22, 32183.09, 39880.56, 50362.70, 37462.06, -35405.25, 0.000, 0.000, 0.000, 20:31:56.434, 1559237516434
251, 23736.93, -32619.80, 30735.41, 32180.54, 39881.99, 50396.19, 37468.72, -35663.82, 0.000, 0.000, 0.000, 20:31:56.434, 1559237516434
252, 23721.86, -32453.86, 30714.74, 32155.62, 39859.64, 50440.51, 37445.96, -35463.19, 0.000, 0.000, 0.000, 20:31:56.434, 1559237516434
253, 23712.74, -32571.77, 30696.74, 32139.06, 39847.75, 50392.65, 37432.53, -34987.27, 0.000, 0.000, 0.000, 20:31:56.434, 1559237516434
254, 23724.36, -32753.28, 30702.13, 32145.94, 39855.53, 50332.71, 37440.00, -34861.39, 0.002, -0.024, 1.024, 20:31:56.434, 1559237516434
255, 23721.03, -32734.55, 30717.42, 32159.11, 39867.98, 50349.49, 37452.65, -35418.17, 0.000, 0.000, 0.000, 20:31:56.434, 1559237516434
0, 23722.89, -32630.13, 30726.34, 32166.97, 39872.07, 50384.47, 37458.32, -35674.52, 0.000, 0.000, 0.000, 20:31:56.434, 1559237516434
1, 23720.45, -32463.47, 30714.27, 32156.87, 39858.84, 50435.59, 37452.13, -35469.73, 0.000, 0.000, 0.000, 20:31:56.434, 1559237516434
2, 23709.75, -32589.40, 30689.14, 32135.28, 39839.70, 50383.58, 37430.52, -34976.68, 0.000, 0.000, 0.000, 20:31:56.434, 1559237516434
3, 23719.40, -32772.33, 30701.15, 32150.77, 39853.14, 50328.30, 37431.04, -34846.17, 0.000, 0.000, 0.000, 20:31:56.434, 1559237516434
4, 23720.41, -32732.47, 30723.28, 32169.43, 39872.70, 50343.84, 37455.78, -35410.17, 0.000, 0.000, 0.000, 20:31:56.434, 1559237516434
5, 23716.16, -32624.22, 30728.89, 32172.85, 39873.07, 50376.20, 37464.50, -35670.68, 0.000, 0.000, 0.000, 20:31:56.434, 1559237516434
6, 23704.16, -32456.99, 30710.58, 32153.86, 39850.77, 50425.27, 37438.93, -35465.13, 0.000, 0.000, 0.000, 20:31:56.434, 1559237516434
7, 23695.11, -32577.49, 30685.57, 32132.22, 39833.20, 50375.76, 37416.15, -34982.07, 0.000, 0.000, 0.000, 20:31:56.434, 1559237516434
8, 23708.12, -32765.13, 30685.68, 32139.28, 39839.46, 50313.93, 37418.74, -34844.38, -0.002, -0.022, 1.026, 20:31:56.434, 1559237516434
9, 23716.38, -32728.47, 30711.50, 32163.02, 39859.55, 50334.18, 37444.51, -35408.96, 0.000, 0.000, 0.000, 20:31:56.434, 1559237516434
10, 23713.72, -32625.03, 30722.03, 32165.01, 39861.90, 50367.96, 37451.75, -35683.46, 0.000, 0.000, 0.000, 20:31:56.434, 1559237516434
11, 23691.69, -32467.76, 30699.63, 32140.87, 39835.93, 50413.55, 37428.49, -35481.65, 0.000, 0.000, 0.000, 20:31:56.435, 1559237516435
12, 23693.92, -32589.98, 30680.09, 32126.81, 39822.63, 50369.43, 37413.20, -34993.89, 0.000, 0.000, 0.000, 20:31:56.435, 1559237516435
13, 23706.13, -32774.59, 30687.25, 32135.95, 39835.50, 50308.70, 37419.97, -34854.91, 0.000, 0.000, 0.000, 20:31:56.435, 1559237516435
14, 23707.73, -32735.74, 30707.05, 32154.62, 39852.27, 50324.86, 37439.04, -35416.85, 0.000, 0.000, 0.000, 20:31:56.435, 1559237516435
15, 23708.47, -32635.15, 30711.79, 32156.89, 39850.92, 50356.78, 37439.66, -35687.60, 0.000, 0.000, 0.000, 20:31:56.435, 1559237516435
16, 23705.90, -32464.07, 30700.63, 32140.58, 39834.47, 50399.94, 37425.22, -35497.00, 0.000, 0.000, 0.000, 20:31:56.435, 1559237516435
17, 23690.30, -32579.86, 30679.85, 32128.31, 39825.62, 50363.86, 37414.18, -35018.90, 0.000, 0.000, 0.000, 20:31:56.435, 1559237516435
18, 23679.71, -32766.14, 30680.83, 32130.61, 39833.89, 50306.38, 37418.29, -34863.04, -0.004, -0.022, 1.032, 20:31:56.435, 1559237516435
19, 23689.90, -32734.78, 30703.54, 32145.29, 39852.29, 50317.11, 37433.32, -35426.69, 0.000, 0.000, 0.000, 20:31:56.435, 1559237516435
20, 23690.81, -32634.53, 30702.27, 32149.36, 39850.28, 50340.22, 37434.95, -35704.00, 0.000, 0.000, 0.000, 20:31:56.435, 1559237516435
21, 23676.26, -32472.84, 30686.98, 32119.88, 39832.08, 50388.79, 37425.58, -35504.38, 0.000, 0.000, 0.000, 20:31:56.435, 1559237516435
22, 23672.13, -32589.00, 30664.56, 32099.12, 39812.25, 50343.44, 37395.38, -35027.80, 0.000, 0.000, 0.000, 20:31:56.435, 1559237516435
23, 23677.98, -32775.28, 30669.77, 32112.15, 39818.96, 50280.52, 37394.31, -34876.54, 0.000, 0.000, 0.000, 20:31:56.435, 1559237516435
24, 23690.17, -32750.00, 30694.33, 32139.66, 39839.95, 50299.89, 37422.32, -35430.96, 0.000, 0.000, 0.000, 20:31:56.435, 1559237516435
25, 23681.09, -32655.03, 30698.78, 32147.11, 39843.37, 50333.87, 37428.64, -35702.86, 0.000, 0.000, 0.000, 20:31:56.435, 1559237516435
26, 23669.96, -32481.76, 30678.53, 32127.93, 39822.78, 50382.57, 37406.20, -35523.61, 0.000, 0.000, 0.000, 20:31:56.435, 1559237516435
27, 23669.58, -32589.18, 30662.21, 32113.35, 39809.62, 50342.39, 37386.51, -35048.18, 0.000, 0.000, 0.000, 20:31:56.436, 1559237516436
28, 23672.46, -32784.78, 30666.77, 32117.09, 39816.52, 50278.41, 37390.87, -34885.06, -0.002, -0.024, 1.026, 20:31:56.436, 1559237516436
29, 23688.49, -32751.25, 30691.71, 32138.86, 39837.00, 50292.92, 37413.42, -35446.96, 0.000, 0.000, 0.000, 20:31:56.436, 1559237516436
30, 23680.49, -32651.25, 30694.67, 32141.25, 39836.60, 50322.63, 37416.80, -35727.59, 0.000, 0.000, 0.000, 20:31:56.436, 1559237516436
31, 23654.43, -32486.67, 30682.24, 32131.84, 39826.07, 50380.43, 37403.56, -35527.92, 0.000, 0.000, 0.000, 20:31:56.436, 1559237516436
32, 23651.12, -32599.88, 30664.27, 32118.43, 39812.84, 50343.44, 37384.48, -35043.38, 0.000, 0.000, 0.000, 20:31:56.436, 1559237516436
33, 23676.80, -32780.11, 30671.98, 32125.36, 39821.00, 50280.34, 37387.23, -34892.21, 0.000, 0.000, 0.000, 20:31:56.436, 1559237516436
34, 23678.63, -32736.79, 30694.44, 32140.20, 39838.90, 50293.37, 37409.98, -35442.98, 0.000, 0.000, 0.000, 20:31:56.436, 1559237516436
35, 23671.53, -32637.46, 30698.78, 32138.97, 39839.03, 50323.74, 37408.37, -35718.91, 0.000, 0.000, 0.000, 20:31:56.436, 1559237516436
36, 23658.85, -32484.55, 30681.12, 32118.96, 39817.20, 50370.79, 37388.61, -35537.24, 0.000, 0.000, 0.000, 20:31:56.436, 1559237516436
37, 23643.43, -32595.37, 30658.86, 32102.65, 39801.91, 50328.68, 37374.24, -35071.47, 0.000, 0.000, 0.000, 20:31:56.436, 1559237516436
38, 23652.97, -32786.79, 30664.78, 32115.79, 39816.50, 50271.78, 37384.77, -34892.66, -0.002, -0.026, 1.020, 20:31:56.436, 1559237516436
39, 23659.90, -32767.92, 30680.52, 32131.21, 39823.57, 50280.94, 37397.53, -35446.42, 0.000, 0.000, 0.000, 20:31:56.436, 1559237516436
40, 23661.80, -32656.21, 30691.45, 32137.63, 39830.45, 50314.63, 37406.22, -35734.87, 0.000, 0.000, 0.000, 20:31:56.436, 1559237516436
41, 23647.54, -32486.81, 30673.21, 32119.97, 39812.77, 50366.95, 37389.93, -35547.63, 0.000, 0.000, 0.000, 20:31:56.436, 1559237516436
42, 23648.79, -32602.72, 30650.41, 32102.29, 39797.39, 50326.40, 37372.36, -35074.51, 0.000, 0.000, 0.000, 20:31:56.437, 1559237516437
43, 23656.55, -32793.83, 30662.88, 32114.52, 39809.02, 50272.16, 37386.27, -34891.99, 0.000, 0.000, 0.000, 20:31:56.437, 1559237516437
44, 23659.12, -32765.06, 30692.48, 32144.69, 39833.89, 50294.51, 37401.60, -35439.56, 0.000, 0.000, 0.000, 20:31:56.437, 1559237516437
45, 23654.13, -32676.01, 30690.98, 32146.28, 39830.65, 50315.00, 37395.68, -35736.23, 0.000, 0.000, 0.000, 20:31:56.437, 1559237516437
46, 23644.68, -32499.01, 30677.79, 32108.91, 39817.08, 50362.21, 37387.94, -35550.65, 0.000, 0.000, 0.000, 20:31:56.437, 1559237516437
47, 23631.38, -32602.70, 30659.91, 32090.13, 39800.36, 50322.65, 37365.66, -35072.66, 0.000, 0.000, 0.000, 20:31:56.437, 1559237516437
48, 23646.87, -32793.25, 30667.38, 32103.72, 39811.43, 50262.50, 37375.51, -34904.30, 0.000, -0.026, 1.024, 20:31:56.437, 1559237516437
49, 23649.53, -32763.10, 30685.84, 32123.97, 39827.77, 50272.18, 37397.84, -35445.20, 0.000, 0.000, 0.000, 20:31:56.437, 1559237516437
50, 23651.14, -32666.56, 30688.86, 32132.26, 39826.89, 50302.13, 37397.21, -35738.38, 0.000, 0.000, 0.000, 20:31:56.437, 1559237516437
51, 23640.37, -32489.73, 30678.19, 32118.20, 39810.11, 50352.67, 37377.64, -35563.66, 0.000, 0.000, 0.000, 20:31:56.437, 1559237516437
52, 23630.67, -32596.93, 30656.11, 32098.24, 39790.95, 50309.28, 37356.00, -35084.21, 0.000, 0.000, 0.000, 20:31:56.437, 1559237516437
53, 23645.44, -32785.83, 30662.46, 32110.60, 39805.28, 50253.85, 37368.02, -34897.31, 0.000, 0.000, 0.000, 20:31:56.437, 1559237516437
54, 23666.90, -32760.10, 30687.80, 32136.60, 39825.31, 50273.18, 37389.13, -35448.34, 0.000, 0.000, 0.000, 20:31:56.437, 1559237516437
55, 23661.00, -32684.69, 30688.97, 32137.76, 39823.52, 50300.43, 37384.66, -35747.57, 0.000, 0.000, 0.000, 20:31:56.437, 1559237516437
56, 23635.92, -32517.52, 30673.16, 32117.58, 39807.07, 50348.62, 37370.46, -35558.83, 0.000, 0.000, 0.000, 20:31:56.437, 1559237516437
57, 23623.20, -32624.52, 30650.97, 32092.83, 39786.02, 50302.38, 37346.84, -35095.86, 0.000, 0.000, 0.000, 20:31:56.437, 1559237516437
58, 23630.42, -32823.13, 30659.24, 32100.55, 39797.48, 50240.53, 37361.18, -34905.82, -0.008, -0.024, 1.020, 20:31:56.438, 1559237516438
59, 23629.86, -32793.67, 30673.81, 32117.33, 39810.71, 50251.61, 37378.24, -35432.59, 0.000, 0.000, 0.000, 20:31:56.438, 1559237516438
60, 23635.99, -32691.75, 30678.57, 32121.11, 39813.60, 50280.45, 37374.80, -35735.57, 0.000, 0.000, 0.000, 20:31:56.438, 1559237516438
61, 23626.80, -32517.85, 30667.73, 32104.66, 39800.32, 50332.89, 37365.03, -35561.00, 0.000, 0.000, 0.000, 20:31:56.438, 1559237516438
62, 23615.58, -32627.76, 30648.64, 32089.77, 39786.33, 50297.14, 37346.95, -35096.84, 0.000, 0.000, 0.000, 20:31:56.438, 1559237516438
63, 23620.61, -32831.27, 30652.04, 32097.13, 39792.16, 50230.94, 37360.18, -34892.88, 0.000, 0.000, 0.000, 20:31:56.438, 1559237516438
64, 23625.55, -32802.05, 30668.98, 32114.90, 39806.58, 50244.20, 37373.93, -35425.08, 0.000, 0.000, 0.000, 20:31:56.438, 1559237516438
65, 23624.61, -32710.66, 30675.24, 32121.42, 39812.50, 50282.01, 37381.57, -35739.93, 0.000, 0.000, 0.000, 20:31:56.438, 1559237516438
66, 23617.48, -32535.78, 30664.94, 32102.74, 39795.36, 50331.32, 37360.54, -35570.01, 0.000, 0.000, 0.000, 20:31:56.438, 1559237516438
67, 23619.54, -32634.19, 30646.90, 32089.10, 39782.55, 50291.76, 37344.69, -35095.72, 0.000, 0.000, 0.000, 20:31:56.438, 1559237516438
68, 23621.90, -32831.83, 30641.60, 32095.09, 39780.09, 50219.96, 37345.81, -34900.06, -0.002, -0.026, 1.024, 20:31:56.438, 1559237516438
69, 23616.14, -32785.14, 30664.49, 32121.02, 39797.35, 50230.25, 37359.22, -35439.79, 0.000, 0.000, 0.000, 20:31:56.439, 1559237516439
70, 23621.66, -32704.49, 30673.70, 32118.49, 39800.90, 50264.33, 37357.34, -35755.73, 0.000, 0.000, 0.000, 20:31:56.439, 1559237516439
71, 23616.27, -32537.75, 30662.41, 32098.31, 39783.94, 50316.34, 37341.45, -35592.16, 0.000, 0.000, 0.000, 20:31:56.439, 1559237516439
72, 23611.04, -32644.14, 30640.98, 32077.39, 39769.32, 50276.45, 37321.85, -35126.23, 0.000, 0.000, 0.000, 20:31:56.440, 1559237516440
73, 23610.08, -32846.87, 30646.61, 32084.86, 39784.16, 50214.94, 37334.25, -34922.95, 0.000, 0.000, 0.000, 20:31:56.440, 1559237516440
74, 23609.59, -32814.02, 30658.95, 32100.55, 39792.56, 50222.63, 37349.85, -35446.96, 0.000, 0.000, 0.000, 20:31:56.440, 1559237516440
75, 23619.06, -32714.10, 30664.76, 32108.19, 39796.56, 50256.75, 37363.58, -35756.17, 0.000, 0.000, 0.000, 20:31:56.440, 1559237516440
76, 23609.43, -32536.27, 30648.58, 32093.13, 39778.93, 50309.21, 37347.21, -35593.90, 0.000, 0.000, 0.000, 20:31:56.440, 1559237516440
77, 23594.52, -32647.98, 30627.90, 32074.60, 39762.48, 50267.71, 37322.00, -35137.37, 0.000, 0.000, 0.000, 20:31:56.440, 1559237516440
78, 23604.51, -32845.35, 30636.19, 32082.49, 39771.60, 50203.22, 37334.45, -34928.15, -0.002, -0.024, 1.022, 20:31:56.440, 1559237516440
79, 23615.96, -32806.84, 30663.26, 32104.55, 39791.60, 50218.51, 37354.82, -35450.78, 0.000, 0.000, 0.000, 20:31:56.440, 1559237516440
80, 23607.76, -32731.42, 30667.26, 32111.03, 39794.08, 50249.89, 37364.05, -35762.97, 0.000, 0.000, 0.000, 20:31:56.440, 1559237516440
81, 23602.59, -32559.92, 30645.71, 32096.59, 39774.84, 50299.02, 37342.79, -35584.38, 0.000, 0.000, 0.000, 20:31:56.440, 1559237516440
82, 23593.03, -32651.25, 30623.74, 32080.32, 39760.64, 50265.41, 37317.55, -35134.39, 0.000, 0.000, 0.000, 20:31:56.440, 1559237516440
83, 23602.32, -32833.57, 30641.92, 32091.81, 39778.26, 50208.18, 37329.40, -34923.08, 0.000, 0.000, 0.000, 20:31:56.440, 1559237516440
84, 23597.81, -32831.18, 30661.14, 32103.92, 39792.81, 50218.51, 37350.48, -35433.37, 0.000, 0.000, 0.000, 20:31:56.440, 1559237516440
85, 23590.34, -32750.36, 30668.07, 32108.15, 39796.74, 50249.60, 37358.95, -35761.27, 0.000, 0.000, 0.000, 20:31:56.440, 1559237516440
86, 23580.15, -32556.01, 30652.76, 32092.59, 39779.02, 50300.12, 37344.45, -35597.16, 0.000, 0.000, 0.000, 20:31:56.441, 1559237516441
87, 23572.78, -32648.72, 30627.92, 32073.52, 39760.87, 50265.11, 37330.56, -35131.78, 0.000, 0.000, 0.000, 20:31:56.441, 1559237516441
88, 23581.27, -32858.29, 30634.43, 32079.54, 39769.03, 50199.00, 37328.82, -34914.14, -0.002, -0.020, 1.026, 20:31:56.441, 1559237516441
89, 23591.35, -32837.75, 30661.16, 32100.05, 39791.87, 50212.39, 37347.95, -35439.41, 0.000, 0.000, 0.000, 20:31:56.441, 1559237516441
90, 23589.90, -32748.50, 30659.73, 32105.84, 39790.64, 50236.28, 37351.29, -35767.46, 0.000, 0.000, 0.000, 20:31:56.441, 1559237516441
91, 23583.71, -32564.88, 30647.79, 32088.48, 39775.29, 50291.16, 37339.21, -35616.41, 0.000, 0.000, 0.000, 20:31:56.441, 1559237516441
92, 23579.01, -32658.18, 30619.03, 32055.78, 39753.89, 50250.88, 37319.07, -35155.74, 0.000, 0.000, 0.000, 20:31:56.441, 1559237516441
93, 23571.68, -32861.49, 30619.88, 32062.68, 39759.17, 50182.59, 37316.23, -34930.55, 0.000, 0.000, 0.000, 20:31:56.442, 1559237516442
94, 23574.67, -32832.95, 30651.82, 32087.45, 39782.95, 50196.07, 37338.34, -35443.34, 0.000, 0.000, 0.000, 20:31:56.442, 1559237516442
95, 23574.56, -32757.98, 30660.54, 32092.61, 39786.51, 50224.88, 37345.36, -35771.57, 0.000, 0.000, 0.000, 20:31:56.442, 1559237516442
96, 23566.18, -32590.56, 30639.55, 32073.37, 39765.00, 50276.36, 37323.70, -35622.98, 0.000, 0.000, 0.000, 20:31:56.442, 1559237516442
97, 23570.65, -32658.60, 30625.69, 32065.03, 39756.04, 50249.25, 37313.06, -35174.13, 0.000, 0.000, 0.000, 20:31:56.442, 1559237516442
98, 23563.61, -32869.31, 30624.77, 32067.42, 39758.72, 50178.10, 37310.83, -34936.74, -0.002, -0.024, 1.032, 20:31:56.442, 1559237516442
99, 23567.05, -32846.18, 30648.33, 32092.92, 39779.87, 50193.28, 37334.21, -35453.98, 0.000, 0.000, 0.000, 20:31:56.442, 1559237516442
100, 23574.07, -32742.13, 30651.24, 32101.33, 39779.60, 50224.43, 37334.14, -35781.16, 0.000, 0.000, 0.000, 20:31:56.442, 1559237516442
101, 23574.25, -32571.21, 30635.03, 32077.05, 39758.41, 50275.62, 37316.50, -35629.28, 0.000, 0.000, 0.000, 20:31:56.442, 1559237516442
102, 23540.59, -32672.04, 30619.74, 32060.22, 39747.64, 50247.14, 37299.72, -35176.97, 0.000, 0.000, 0.000, 20:31:56.442, 1559237516442
103, 23544.12, -32874.32, 30630.23, 32071.33, 39764.04, 50185.16, 37313.31, -34932.85, 0.000, 0.000, 0.000, 20:31:56.442, 1559237516442
104, 23556.08, -32846.22, 30647.21, 32088.83, 39781.21, 50194.44, 37335.21, -35430.96, 0.000, 0.000, 0.000, 20:31:56.909, 1559237516909
105, 23555.29, -32775.41, 30644.42, 32086.35, 39777.61, 50216.57, 37334.41, -35768.27, 0.000, 0.000, 0.000, 20:31:56.910, 1559237516910
106, 23554.24, -32599.86, 30631.75, 32069.57, 39762.43, 50265.79, 37319.66, -35622.46, 0.000, 0.000, 0.000, 20:31:56.910, 1559237516910
107, 23550.29, -32670.43, 30616.61, 32057.79, 39747.46, 50237.40, 37306.18, -35167.16, 0.000, 0.000, 0.000, 20:31:56.910, 1559237516910
108, 23556.90, -32861.06, 30619.99, 32067.73, 39754.48, 50171.42, 37302.71, -34942.39, 0.000, -0.026, 1.028, 20:31:56.910, 1559237516910
109, 23562.87, -32852.75, 30640.64, 32089.64, 39773.21, 50184.83, 37322.67, -35445.82, 0.000, 0.000, 0.000, 20:31:56.910, 1559237516910
110, 23565.58, -32777.78, 30642.30, 32094.38, 39775.29, 50214.55, 37326.41, -35789.79, 0.000, 0.000, 0.000, 20:31:56.910, 1559237516910
111, 23537.26, -32598.54, 30631.12, 32077.01, 39756.69, 50262.52, 37308.61, -35638.04, 0.000, 0.000, 0.000, 20:31:56.910, 1559237516910
112, 23534.78, -32670.89, 30618.56, 32074.33, 39746.38, 50239.70, 37299.72, -35185.13, 0.000, 0.000, 0.000, 20:31:56.910, 1559237516910
113, 23546.42, -32871.21, 30612.95, 32062.71, 39751.28, 50170.19, 37303.56, -34936.56, 0.000, 0.000, 0.000, 20:31:56.910, 1559237516910
114, 23553.06, -32849.66, 30630.61, 32077.12, 39766.99, 50176.45, 37320.35, -35447.54, 0.000, 0.000, 0.000, 20:31:56.910, 1559237516910
115, 23554.92, -32766.09, 30645.63, 32086.40, 39772.38, 50208.61, 37330.12, -35796.21, 0.000, 0.000, 0.000, 20:31:56.910, 1559237516910
116, 23539.31, -32593.89, 30631.84, 32070.77, 39753.20, 50259.77, 37309.53, -35646.09, 0.000, 0.000, 0.000, 20:31:56.911, 1559237516911
117, 23530.89, -32678.56, 30609.62, 32050.50, 39738.63, 50228.37, 37289.37, -35189.67, -0.004, -0.022, 1.020, 20:31:56.911, 1559237516911
118, 23547.14, -32874.48, 30609.91, 32053.47, 39745.94, 50162.10, 37294.87, -34938.97, 0.000, 0.000, 0.000, 20:31:56.911, 1559237516911
119, 23546.67, -32854.76, 30629.94, 32073.01, 39762.72, 50170.95, 37314.36, -35440.21, 0.000, 0.000, 0.000, 20:31:56.911, 1559237516911
120, 23538.44, -32779.32, 30634.50, 32079.56, 39760.91, 50196.52, 37315.72, -35786.84, 0.000, 0.000, 0.000, 20:31:56.911, 1559237516911
121, 23528.27, -32608.20, 30620.57, 32063.04, 39743.48, 50251.10, 37300.01, -35651.50, 0.000, 0.000, 0.000, 20:31:56.911, 1559237516911
122, 23522.82, -32681.76, 30602.80, 32045.70, 39727.07, 50223.79, 37281.46, -35197.63, 0.000, 0.000, 0.000, 20:31:56.911, 1559237516911
123, 23541.53, -32879.79, 30599.72, 32054.10, 39733.67, 50156.53, 37291.40, -34945.57, 0.000, 0.000, 0.000, 20:31:56.911, 1559237516911
124, 23544.05, -32874.32, 30616.64, 32070.91, 39749.56, 50163.13, 37306.67, -35446.63, 0.000, 0.000, 0.000, 20:31:56.912, 1559237516912
125, 23526.02, -32787.50, 30631.77, 32076.07, 39758.39, 50193.03, 37306.36, -35802.13, 0.000, 0.000, 0.000, 20:31:56.912, 1559237516912
126, 23507.62, -32608.09, 30619.90, 32058.95, 39742.14, 50247.26, 37297.37, -35658.54, 0.000, 0.000, 0.000, 20:31:56.912, 1559237516912
127, 23500.76, -32695.55, 30596.68, 32038.34, 39721.91, 50210.82, 37274.80, -35192.57, -0.006, -0.022, 1.024, 20:31:56.913, 1559237516913
128, 23525.86, -32895.62, 30606.49, 32054.86, 39737.51, 50144.37, 37284.47, -34951.13, 0.000, 0.000, 0.000, 20:31:56.913, 1559237516913
129, 23519.53, -32881.18, 30616.72, 32068.79, 39746.90, 50149.24, 37297.68, -35458.70, 0.000, 0.000, 0.000, 20:31:56.915, 1559237516915
130, 23515.67, -32805.05, 30623.59, 32070.19, 39751.93, 50177.41, 37300.34, -35815.52, 0.000, 0.000, 0.000, 20:31:56.915, 1559237516915
131, 23494.83, -32639.07, 30608.75, 32052.13, 39734.43, 50231.83, 37288.88, -35667.41, 0.000, 0.000, 0.000, 20:31:56.915, 1559237516915
132, 23468.01, -32728.12, 30582.51, 32026.79, 39714.20, 50201.14, 37275.42, -35211.68, 0.000, 0.000, 0.000, 20:31:56.915, 1559237516915
133, 23462.78, -32953.51, 30574.17, 32021.22, 39716.39, 50127.94, 37272.89, -34951.55, 0.000, 0.000, 0.000, 20:31:56.915, 1559237516915
134, 23456.01, -32946.70, 30595.56, 32038.05, 39739.75, 50134.13, 37289.84, -35456.37, 0.000, 0.000, 0.000, 20:31:56.916, 1559237516916
135, 23432.03, -32881.80, 30597.93, 32038.65, 39739.90, 50158.16, 37299.09, -35822.96, 0.000, 0.000, 0.000, 20:31:56.916, 1559237516916
136, 23405.36, -32730.60, 30577.50, 32013.31, 39715.09, 50205.35, 37282.17, -35675.02, 0.000, 0.000, 0.000, 20:31:56.916, 1559237516916
137, 23371.16, -32826.02, 30551.39, 31988.63, 39697.01, 50178.86, 37254.43, -35224.05, -0.002, -0.022, 1.014, 20:31:56.916, 1559237516916
138, 23357.26, -33051.55, 30549.20, 31992.36, 39706.15, 50111.71, 37260.67, -34974.40, 0.000, 0.000, 0.000, 20:31:56.916, 1559237516916
139, 23350.35, -33051.88, 30562.01, 32004.39, 39717.06, 50113.19, 37274.84, -35471.90, 0.000, 0.000, 0.000, 20:31:56.916, 1559237516916
140, 23333.90, -32988.74, 30567.26, 32004.32, 39721.69, 50137.73, 37279.07, -35836.68, 0.000, 0.000, 0.000, 20:31:56.916, 1559237516916
