%OpenBCI Raw EEG Data
%Number of channels = 8
%Sample Rate = 250.0 Hz
%First Column = SampleIndex
%Last Column = Timestamp 
%Other Columns = EEG data in microvolts followed by Accel Data (in G) interleaved with Aux Data
0, -16.81, -25.19, -23.22, -21.73, -20.65, 8527.44, -27.07, -23.45, 0.010, 0.054, -1.034, 11:37:51.634, 1560760671634
1, -16.67, -25.39, -23.18, -21.64, -20.43, 8537.18, -26.91, -23.42, 0.000, 0.000, 0.000, 11:37:51.635, 1560760671635
2, -16.92, -25.41, -23.38, -21.59, -20.32, 8589.40, -26.93, -23.38, 0.000, 0.000, 0.000, 11:37:51.636, 1560760671636
3, -16.96, -25.12, -23.18, -21.50, -20.43, 8593.17, -27.05, -23.40, 0.000, 0.000, 0.000, 11:37:51.636, 1560760671636
4, -16.90, -25.17, -23.20, -21.50, -20.70, 8573.26, -26.91, -23.56, 0.000, 0.000, 0.000, 11:37:51.636, 1560760671636
5, -16.81, -25.28, -23.27, -21.73, -20.74, 8540.60, -26.91, -23.34, 0.000, 0.000, 0.000, 11:37:51.636, 1560760671636
6, -17.08, -25.30, -23.16, -21.73, -20.70, 8526.94, -26.89, -23.40, 0.000, 0.000, 0.000, 11:37:51.636, 1560760671636
7, -17.12, -25.41, -23.16, -21.48, -20.56, 8556.00, -26.89, -23.38, 0.008, 0.052, -1.030, 11:37:51.636, 1560760671636
8, -16.96, -25.53, -23.16, -21.39, -20.43, 8560.32, -26.91, -23.27, 0.000, 0.000, 0.000, 11:37:51.636, 1560760671636
9, -16.85, -25.35, -23.34, -21.66, -20.63, 8567.04, -26.93, -23.38, 0.000, 0.000, 0.000, 11:37:51.637, 1560760671637
10, -16.96, -25.28, -23.18, -21.44, -20.61, 8543.89, -26.96, -23.49, 0.000, 0.000, 0.000, 11:37:51.637, 1560760671637
11, -16.74, -25.30, -23.29, -21.37, -20.52, 8530.57, -26.80, -23.60, 0.000, 0.000, 0.000, 11:37:51.637, 1560760671637
12, -16.94, -25.32, -23.16, -21.50, -20.43, 8577.79, -27.02, -23.51, 0.000, 0.000, 0.000, 11:37:51.637, 1560760671637
13, -16.90, -25.21, -23.04, -21.37, -20.54, 8586.76, -27.02, -23.27, 0.000, 0.000, 0.000, 11:37:51.637, 1560760671637
14, -16.85, -25.30, -23.25, -21.26, -20.61, 8569.86, -27.11, -23.20, 0.000, 0.000, 0.000, 11:37:51.637, 1560760671637
15, -16.92, -25.44, -23.29, -21.19, -20.38, 8589.22, -26.78, -23.22, 0.000, 0.000, 0.000, 11:37:51.637, 1560760671637
16, -16.90, -25.39, -23.27, -21.57, -20.32, 8537.32, -26.62, -23.34, 0.008, 0.054, -1.036, 11:37:51.637, 1560760671637
17, -16.94, -25.37, -23.31, -21.46, -20.27, 8585.21, -26.67, -23.40, 0.000, 0.000, 0.000, 11:37:51.637, 1560760671637
18, -16.90, -25.37, -23.49, -21.44, -20.52, 8571.31, -26.87, -23.27, 0.000, 0.000, 0.000, 11:37:51.637, 1560760671637
19, -16.96, -25.24, -23.25, -21.39, -20.63, 8581.35, -26.96, -23.51, 0.000, 0.000, 0.000, 11:37:51.637, 1560760671637
20, -16.94, -25.48, -23.13, -21.52, -20.36, 8539.95, -26.89, -23.40, 0.000, 0.000, 0.000, 11:37:51.637, 1560760671637
21, -16.96, -25.26, -23.16, -21.73, -20.30, 8540.40, -26.87, -23.27, 0.000, 0.000, 0.000, 11:37:51.638, 1560760671638
22, -16.92, -25.24, -23.22, -21.59, -20.30, 8597.29, -26.89, -23.29, 0.000, 0.000, 0.000, 11:37:51.640, 1560760671640
23, -16.74, -25.30, -23.27, -21.66, -20.43, 8589.10, -26.80, -23.34, 0.000, 0.000, 0.000, 11:37:51.640, 1560760671640
24, -16.76, -25.08, -23.34, -21.70, -20.47, 8575.67, -26.98, -23.34, 0.000, 0.000, 0.000, 11:37:51.640, 1560760671640
25, -16.83, -25.21, -23.38, -21.61, -20.50, 8553.30, -27.00, -23.22, 0.000, 0.000, 0.000, 11:37:51.640, 1560760671640
26, -16.96, -25.50, -23.20, -21.37, -20.56, 8547.91, -27.14, -23.22, 0.010, 0.050, -1.038, 11:37:51.640, 1560760671640
27, -16.92, -25.41, -23.40, -21.39, -20.43, 8547.31, -26.84, -23.45, 0.000, 0.000, 0.000, 11:37:51.641, 1560760671641
28, -16.81, -25.41, -23.38, -21.64, -20.56, 8554.24, -26.78, -23.51, 0.000, 0.000, 0.000, 11:37:51.641, 1560760671641
29, -16.67, -25.53, -23.36, -21.77, -20.72, 8573.19, -27.00, -23.47, 0.000, 0.000, 0.000, 11:37:51.641, 1560760671641
30, -16.81, -25.26, -23.27, -21.70, -20.72, 8545.94, -27.02, -23.49, 0.000, 0.000, 0.000, 11:37:51.641, 1560760671641
31, -16.76, -25.30, -23.40, -21.37, -20.74, 8570.49, -26.80, -23.29, 0.000, 0.000, 0.000, 11:37:51.641, 1560760671641
32, -16.90, -25.19, -23.49, -21.61, -20.65, 8606.52, -26.73, -23.40, 0.000, 0.000, 0.000, 11:37:51.641, 1560760671641
33, -16.99, -25.15, -23.29, -21.79, -20.76, 8617.33, -26.82, -23.29, 0.000, 0.000, 0.000, 11:37:51.641, 1560760671641
34, -16.83, -25.17, -23.38, -21.82, -20.65, 8576.05, -27.05, -23.29, 0.000, 0.000, 0.000, 11:37:51.641, 1560760671641
35, -16.92, -25.19, -23.34, -21.95, -20.65, 8558.55, -27.00, -23.25, 0.000, 0.000, 0.000, 11:37:51.641, 1560760671641
36, -16.90, -25.19, -23.29, -21.75, -20.65, 8567.51, -27.07, -23.20, 0.008, 0.058, -1.032, 11:37:51.641, 1560760671641
37, -17.01, -25.35, -23.25, -21.55, -20.56, 8572.99, -26.82, -23.40, 0.000, 0.000, 0.000, 11:37:51.641, 1560760671641
38, -16.92, -25.30, -23.20, -21.50, -20.47, 8594.29, -26.64, -23.49, 0.000, 0.000, 0.000, 11:37:51.641, 1560760671641
39, -17.08, -25.35, -23.13, -21.32, -20.47, 8572.77, -26.51, -23.49, 0.000, 0.000, 0.000, 11:37:51.642, 1560760671642
40, -16.88, -25.37, -23.07, -21.61, -20.54, 8550.44, -26.67, -23.29, 0.000, 0.000, 0.000, 11:37:51.642, 1560760671642
41, -16.90, -25.37, -23.31, -21.73, -20.59, 8570.75, -26.82, -23.34, 0.000, 0.000, 0.000, 11:37:51.642, 1560760671642
42, -17.03, -25.32, -23.16, -21.73, -20.83, 8557.41, -26.82, -23.27, 0.000, 0.000, 0.000, 11:37:51.642, 1560760671642
43, -16.99, -25.39, -23.04, -21.73, -20.85, 8552.63, -27.02, -23.34, 0.000, 0.000, 0.000, 11:37:51.642, 1560760671642
44, -16.79, -25.24, -23.11, -21.52, -20.43, 8557.05, -26.96, -23.34, 0.000, 0.000, 0.000, 11:37:51.642, 1560760671642
45, -16.70, -25.12, -23.11, -21.55, -20.61, 8551.53, -26.82, -23.38, 0.000, 0.000, 0.000, 11:37:51.642, 1560760671642
46, -17.12, -25.30, -23.11, -21.37, -20.47, 8582.82, -27.02, -23.11, 0.008, 0.062, -1.040, 11:37:51.642, 1560760671642
47, -16.92, -25.30, -23.29, -21.64, -20.61, 8591.36, -26.71, -23.34, 0.000, 0.000, 0.000, 11:37:51.642, 1560760671642
48, -16.67, -25.03, -23.34, -21.55, -20.50, 8543.19, -26.84, -23.29, 0.000, 0.000, 0.000, 11:37:51.642, 1560760671642
49, -16.72, -25.21, -23.34, -21.61, -20.36, 8551.84, -26.87, -23.00, 0.000, 0.000, 0.000, 11:37:51.643, 1560760671643
50, -16.83, -25.19, -23.13, -21.48, -20.16, 8555.67, -26.91, -23.25, 0.000, 0.000, 0.000, 11:37:51.643, 1560760671643
51, -16.63, -25.39, -23.18, -21.68, -20.38, 8543.26, -26.84, -23.25, 0.000, 0.000, 0.000, 11:37:51.643, 1560760671643
52, -16.81, -25.24, -23.22, -21.75, -20.38, 8576.52, -26.93, -23.38, 0.000, 0.000, 0.000, 11:37:51.643, 1560760671643
53, -16.92, -25.48, -23.09, -21.77, -20.50, 8584.14, -27.00, -23.42, 0.000, 0.000, 0.000, 11:37:51.643, 1560760671643
54, -16.92, -25.35, -23.13, -21.52, -20.43, 8560.20, -27.18, -23.60, 0.000, 0.000, 0.000, 11:37:51.643, 1560760671643
55, -16.90, -25.39, -23.07, -21.55, -20.43, 8562.26, -26.80, -23.45, 0.000, 0.000, 0.000, 11:37:51.643, 1560760671643
56, -16.92, -25.37, -23.07, -21.35, -20.56, 8543.24, -26.84, -23.34, 0.008, 0.060, -1.036, 11:37:51.643, 1560760671643
57, -17.03, -25.21, -23.18, -21.41, -20.41, 8574.06, -26.87, -23.36, 0.000, 0.000, 0.000, 11:37:51.643, 1560760671643
58, -16.74, -25.35, -23.22, -21.35, -20.72, 8593.22, -27.14, -23.38, 0.000, 0.000, 0.000, 11:37:51.643, 1560760671643
59, -16.54, -25.53, -23.16, -21.50, -20.70, 8563.51, -27.00, -23.49, 0.000, 0.000, 0.000, 11:37:51.643, 1560760671643
60, -16.63, -25.46, -23.20, -21.55, -20.16, 8558.88, -26.84, -23.40, 0.000, 0.000, 0.000, 11:37:51.643, 1560760671643
61, -17.01, -25.30, -23.27, -21.14, -20.47, 8550.19, -26.73, -23.22, 0.000, 0.000, 0.000, 11:37:51.644, 1560760671644
62, -16.92, -25.32, -23.29, -21.39, -20.76, 8572.54, -26.98, -23.29, 0.000, 0.000, 0.000, 11:37:51.644, 1560760671644
63, -17.01, -25.08, -23.34, -21.68, -20.65, 8579.18, -27.25, -23.49, 0.000, 0.000, 0.000, 11:37:51.644, 1560760671644
64, -16.67, -25.21, -23.34, -21.73, -20.56, 8570.42, -26.87, -23.60, 0.000, 0.000, 0.000, 11:37:51.644, 1560760671644
65, -16.70, -25.32, -23.27, -21.64, -20.50, 8567.71, -26.87, -23.31, 0.000, 0.000, 0.000, 11:37:51.644, 1560760671644
66, -16.92, -25.39, -23.16, -21.55, -20.61, 8573.95, -26.69, -23.29, 0.008, 0.056, -1.042, 11:37:51.644, 1560760671644
67, -16.96, -25.24, -23.25, -21.61, -20.81, 8598.92, -26.58, -23.31, 0.000, 0.000, 0.000, 11:37:51.644, 1560760671644
68, -16.92, -25.30, -23.11, -21.55, -20.72, 8601.55, -26.53, -23.49, 0.000, 0.000, 0.000, 11:37:51.644, 1560760671644
69, -16.83, -25.39, -23.22, -21.44, -20.63, 8575.31, -26.73, -23.65, 0.000, 0.000, 0.000, 11:37:51.644, 1560760671644
70, -16.81, -25.32, -23.29, -21.73, -20.65, 8587.36, -26.71, -23.56, 0.000, 0.000, 0.000, 11:37:51.644, 1560760671644
71, -16.96, -25.17, -23.36, -21.66, -20.52, 8571.13, -26.96, -23.29, 0.000, 0.000, 0.000, 11:37:51.644, 1560760671644
72, -17.32, -25.21, -23.38, -21.46, -20.65, 8542.43, -26.76, -23.22, 0.000, 0.000, 0.000, 11:37:51.644, 1560760671644
73, -16.90, -25.32, -23.25, -21.48, -20.50, 8565.32, -26.71, -23.45, 0.000, 0.000, 0.000, 11:37:51.645, 1560760671645
74, -16.67, -25.32, -23.00, -21.39, -20.36, 8544.04, -26.80, -23.54, 0.000, 0.000, 0.000, 11:37:51.645, 1560760671645
75, -16.90, -25.28, -23.07, -21.59, -20.70, 8545.94, -26.91, -23.31, 0.000, 0.000, 0.000, 11:37:51.645, 1560760671645
76, -16.83, -25.30, -23.09, -21.66, -20.68, 8525.11, -26.80, -23.40, 0.010, 0.050, -1.038, 11:37:51.645, 1560760671645
77, -16.83, -25.35, -23.22, -21.55, -20.54, 8556.43, -26.80, -23.60, 0.000, 0.000, 0.000, 11:37:51.645, 1560760671645
78, -16.99, -25.41, -23.18, -21.59, -20.45, 8553.41, -26.82, -23.60, 0.000, 0.000, 0.000, 11:37:51.645, 1560760671645
79, -17.03, -25.37, -23.18, -21.70, -20.72, 8562.60, -27.02, -23.45, 0.000, 0.000, 0.000, 11:37:51.645, 1560760671645
80, -16.90, -25.55, -23.20, -21.61, -20.70, 8564.99, -26.89, -23.34, 0.000, 0.000, 0.000, 11:37:51.645, 1560760671645
81, -16.85, -25.35, -23.38, -21.86, -20.61, 8575.42, -26.98, -23.49, 0.000, 0.000, 0.000, 11:37:51.645, 1560760671645
82, -16.92, -25.28, -23.34, -21.66, -20.38, 8561.30, -27.07, -23.56, 0.000, 0.000, 0.000, 11:37:51.646, 1560760671646
83, -16.63, -25.19, -23.11, -21.55, -20.72, 8552.43, -26.91, -23.42, 0.000, 0.000, 0.000, 11:37:51.646, 1560760671646
84, -16.79, -25.21, -23.29, -21.66, -20.47, 8564.79, -26.80, -23.40, 0.000, 0.000, 0.000, 11:37:51.646, 1560760671646
85, -16.90, -25.39, -23.31, -21.59, -20.63, 8548.22, -26.96, -23.58, 0.000, 0.000, 0.000, 11:37:51.646, 1560760671646
86, -16.90, -25.57, -23.34, -21.52, -20.59, 8577.88, -26.69, -23.40, 0.008, 0.048, -1.038, 11:37:51.646, 1560760671646
87, -16.92, -25.24, -23.38, -21.64, -20.56, 8605.44, -26.84, -23.27, 0.000, 0.000, 0.000, 11:37:51.646, 1560760671646
88, -16.88, -24.99, -23.40, -21.55, -20.41, 8583.45, -26.96, -23.13, 0.000, 0.000, 0.000, 11:37:51.646, 1560760671646
89, -16.96, -25.06, -23.34, -21.41, -20.45, 8595.63, -27.02, -23.45, 0.000, 0.000, 0.000, 11:37:51.646, 1560760671646
90, -16.88, -25.06, -23.00, -21.48, -20.65, 8567.98, -27.05, -23.60, 0.000, 0.000, 0.000, 11:37:51.646, 1560760671646
91, -16.79, -25.08, -23.09, -21.61, -20.61, 8557.21, -27.00, -23.45, 0.000, 0.000, 0.000, 11:37:51.646, 1560760671646
92, -16.88, -25.08, -23.16, -21.70, -20.47, 8578.17, -26.84, -23.45, 0.000, 0.000, 0.000, 11:37:51.646, 1560760671646
93, -17.19, -25.21, -23.09, -21.66, -20.43, 8597.67, -26.69, -23.60, 0.000, 0.000, 0.000, 11:37:51.646, 1560760671646
94, -17.08, -25.24, -23.36, -21.73, -20.30, 8592.37, -26.84, -23.42, 0.000, 0.000, 0.000, 11:37:51.647, 1560760671647
95, -16.96, -25.08, -23.56, -21.61, -20.47, 8587.50, -27.07, -23.45, 0.000, 0.000, 0.000, 11:37:51.647, 1560760671647
96, -16.88, -25.39, -23.25, -21.48, -20.47, 8577.28, -27.02, -23.49, 0.010, 0.044, -1.040, 11:37:51.647, 1560760671647
97, -16.58, -25.30, -23.22, -21.44, -20.32, 8545.54, -27.07, -23.27, 0.000, 0.000, 0.000, 11:37:51.647, 1560760671647
98, -16.67, -25.10, -23.34, -21.55, -20.54, 8573.32, -27.16, -23.34, 0.000, 0.000, 0.000, 11:37:51.647, 1560760671647
99, -16.65, -25.15, -23.18, -21.48, -20.70, 8593.20, -27.14, -23.38, 0.000, 0.000, 0.000, 11:37:51.647, 1560760671647
100, -16.85, -25.06, -23.40, -21.50, -20.47, 8576.16, -27.05, -23.22, 0.000, 0.000, 0.000, 11:37:51.647, 1560760671647
101, -16.74, -25.24, -23.40, -21.41, -20.43, 8557.79, -26.87, -23.45, 0.000, 0.000, 0.000, 11:37:51.647, 1560760671647
102, -16.85, -25.41, -23.60, -21.55, -20.61, 8582.80, -26.76, -23.38, 0.000, 0.000, 0.000, 11:37:51.647, 1560760671647
103, -16.79, -25.53, -23.22, -21.26, -20.65, 8598.00, -26.73, -23.58, 0.000, 0.000, 0.000, 11:37:51.647, 1560760671647
104, -16.88, -25.32, -23.00, -21.50, -20.43, 8582.22, -26.69, -23.69, 0.000, 0.000, 0.000, 11:37:51.647, 1560760671647
105, -16.99, -25.19, -23.31, -21.70, -20.47, 8582.64, -26.84, -23.34, 0.000, 0.000, 0.000, 11:37:51.648, 1560760671648
106, -17.05, -25.28, -23.22, -21.66, -20.30, 8565.88, -26.98, -23.34, 0.008, 0.048, -1.038, 11:37:51.648, 1560760671648
107, -16.79, -25.17, -23.13, -21.37, -20.25, 8544.47, -27.02, -23.45, 0.000, 0.000, 0.000, 11:37:51.648, 1560760671648
108, -17.01, -25.17, -23.29, -21.32, -20.45, 8555.35, -26.80, -23.18, 0.000, 0.000, 0.000, 11:37:51.648, 1560760671648
109, -16.92, -25.35, -23.42, -21.41, -20.52, 8567.04, -26.73, -23.29, 0.000, 0.000, 0.000, 11:37:51.648, 1560760671648
110, -16.79, -25.35, -23.13, -21.48, -20.74, 8582.15, -26.82, -23.49, 0.000, 0.000, 0.000, 11:37:51.648, 1560760671648
111, -16.65, -25.55, -23.04, -21.48, -20.32, 8607.12, -26.76, -23.25, 0.000, 0.000, 0.000, 11:37:51.648, 1560760671648
112, -16.79, -25.53, -23.22, -21.66, -20.38, 8588.61, -26.82, -23.29, 0.000, 0.000, 0.000, 11:37:51.648, 1560760671648
113, -16.65, -25.39, -23.18, -21.66, -20.70, 8624.29, -26.96, -23.47, 0.000, 0.000, 0.000, 11:37:51.648, 1560760671648
114, -16.76, -25.17, -23.22, -21.61, -20.54, 8567.00, -26.91, -23.49, 0.000, 0.000, 0.000, 11:37:51.648, 1560760671648
115, -16.90, -24.86, -23.36, -21.52, -20.50, 8553.32, -26.82, -23.60, 0.000, 0.000, 0.000, 11:37:51.648, 1560760671648
116, -16.90, -25.21, -23.45, -21.50, -20.43, 8576.57, -26.58, -23.42, 0.006, 0.052, -1.038, 11:37:51.648, 1560760671648
117, -16.85, -25.50, -23.45, -21.73, -20.38, 8603.19, -26.67, -23.16, 0.000, 0.000, 0.000, 11:37:51.648, 1560760671648
118, -16.81, -25.50, -23.34, -21.70, -20.56, 8614.09, -26.91, -23.13, 0.000, 0.000, 0.000, 11:37:51.649, 1560760671649
119, -16.81, -25.32, -23.11, -21.57, -20.47, 8576.59, -26.73, -23.16, 0.000, 0.000, 0.000, 11:37:51.649, 1560760671649
120, -16.92, -25.57, -23.04, -21.46, -20.36, 8544.98, -26.91, -23.51, 0.000, 0.000, 0.000, 11:37:52.174, 1560760672174
121, -16.76, -25.44, -23.29, -21.68, -20.61, 8583.81, -26.82, -23.29, 0.000, 0.000, 0.000, 11:37:52.174, 1560760672174
122, -16.72, -25.19, -23.18, -21.66, -20.59, 8592.93, -26.84, -23.27, 0.000, 0.000, 0.000, 11:37:52.174, 1560760672174
123, -17.03, -25.28, -23.13, -21.48, -20.61, 8610.94, -26.82, -23.18, 0.000, 0.000, 0.000, 11:37:52.174, 1560760672174
124, -16.88, -25.32, -23.11, -21.84, -20.45, 8591.90, -26.76, -23.25, 0.000, 0.000, 0.000, 11:37:52.174, 1560760672174
125, -16.56, -25.41, -23.20, -21.73, -20.27, 8587.81, -26.82, -23.40, 0.008, 0.056, -1.042, 11:37:52.175, 1560760672175
126, -16.74, -25.37, -23.34, -21.61, -20.45, 8592.64, -26.93, -23.36, 0.000, 0.000, 0.000, 11:37:52.175, 1560760672175
127, -17.01, -25.26, -23.27, -21.37, -20.70, 8599.81, -26.89, -23.07, 0.000, 0.000, 0.000, 11:37:52.175, 1560760672175
128, -16.70, -25.35, -23.56, -21.48, -20.45, 8557.28, -26.84, -23.29, 0.000, 0.000, 0.000, 11:37:52.175, 1560760672175
129, -16.79, -25.17, -23.29, -21.48, -20.27, 8572.09, -26.69, -23.34, 0.000, 0.000, 0.000, 11:37:52.175, 1560760672175
130, -16.85, -25.35, -23.18, -21.73, -20.47, 8573.12, -26.96, -22.98, 0.000, 0.000, 0.000, 11:37:52.176, 1560760672176
131, -16.67, -25.35, -23.22, -21.61, -20.61, 8591.70, -27.02, -23.16, 0.000, 0.000, 0.000, 11:37:52.176, 1560760672176
132, -16.79, -25.12, -23.20, -21.44, -20.45, 8600.44, -26.96, -23.40, 0.000, 0.000, 0.000, 11:37:52.176, 1560760672176
133, -16.70, -25.24, -23.22, -21.52, -20.45, 8581.91, -26.84, -23.18, 0.000, 0.000, 0.000, 11:37:52.176, 1560760672176
134, -16.72, -25.35, -23.40, -21.66, -20.34, 8587.50, -26.67, -23.34, 0.000, 0.000, 0.000, 11:37:52.176, 1560760672176
135, -16.79, -25.53, -23.18, -21.55, -20.36, 8554.42, -26.76, -23.56, 0.010, 0.050, -1.040, 11:37:52.176, 1560760672176
136, -16.81, -25.39, -23.22, -21.82, -20.43, 8563.33, -26.64, -23.40, 0.000, 0.000, 0.000, 11:37:52.176, 1560760672176
137, -16.85, -25.30, -23.18, -21.77, -20.47, 8594.00, -26.89, -23.40, 0.000, 0.000, 0.000, 11:37:52.176, 1560760672176
138, -16.88, -25.30, -23.02, -21.79, -20.56, 8598.67, -27.02, -23.56, 0.000, 0.000, 0.000, 11:37:52.176, 1560760672176
139, -16.88, -25.48, -23.29, -21.66, -20.36, 8607.81, -27.00, -23.42, 0.000, 0.000, 0.000, 11:37:52.176, 1560760672176
140, -16.81, -25.50, -23.36, -21.55, -20.45, 8598.18, -26.76, -23.54, 0.000, 0.000, 0.000, 11:37:52.176, 1560760672176
141, -16.85, -25.50, -23.22, -21.52, -20.63, 8578.02, -26.64, -23.34, 0.000, 0.000, 0.000, 11:37:52.176, 1560760672176
142, -16.79, -25.46, -23.16, -21.44, -20.50, 8566.66, -26.84, -23.11, 0.000, 0.000, 0.000, 11:37:52.176, 1560760672176
143, -16.74, -25.30, -23.22, -21.26, -20.65, 8564.54, -26.82, -23.09, 0.000, 0.000, 0.000, 11:37:52.176, 1560760672176
144, -16.72, -25.30, -23.56, -21.70, -20.56, 8544.92, -27.02, -23.25, 0.000, 0.000, 0.000, 11:37:52.176, 1560760672176
145, -16.81, -25.41, -23.38, -21.88, -20.43, 8554.97, -26.80, -23.13, 0.010, 0.054, -1.036, 11:37:52.176, 1560760672176
146, -16.67, -25.24, -23.38, -21.48, -20.50, 8575.54, -27.02, -23.04, 0.000, 0.000, 0.000, 11:37:52.176, 1560760672176
147, -16.85, -25.57, -23.07, -21.41, -20.76, 8602.16, -26.71, -23.00, 0.000, 0.000, 0.000, 11:37:52.176, 1560760672176
148, -16.81, -25.79, -23.20, -21.39, -20.47, 8595.68, -26.69, -23.29, 0.000, 0.000, 0.000, 11:37:52.177, 1560760672177
149, -16.79, -25.41, -23.38, -21.35, -20.38, 8561.37, -26.78, -23.56, 0.000, 0.000, 0.000, 11:37:52.177, 1560760672177
150, -17.03, -25.41, -23.27, -21.52, -20.27, 8555.00, -26.96, -23.54, 0.000, 0.000, 0.000, 11:37:52.177, 1560760672177
151, -16.94, -25.46, -23.29, -21.66, -20.16, 8586.00, -26.87, -23.40, 0.000, 0.000, 0.000, 11:37:52.177, 1560760672177
152, -16.72, -25.41, -23.45, -21.48, -20.36, 8597.08, -26.67, -23.18, 0.000, 0.000, 0.000, 11:37:52.177, 1560760672177
153, -16.85, -25.50, -23.18, -21.46, -20.59, 8616.06, -26.67, -23.04, 0.000, 0.000, 0.000, 11:37:52.178, 1560760672178
154, -16.92, -25.46, -23.34, -21.48, -20.56, 8622.61, -26.78, -23.27, 0.000, 0.000, 0.000, 11:37:52.178, 1560760672178
155, -16.88, -25.32, -23.45, -21.46, -20.50, 8590.27, -27.09, -23.02, 0.006, 0.058, -1.040, 11:37:52.178, 1560760672178
156, -16.96, -25.28, -23.27, -21.66, -20.63, 8536.42, -26.96, -23.27, 0.000, 0.000, 0.000, 11:37:52.178, 1560760672178
157, -16.90, -25.46, -23.04, -21.55, -20.54, 8532.53, -26.80, -23.31, 0.000, 0.000, 0.000, 11:37:52.178, 1560760672178
158, -16.85, -25.30, -22.93, -21.39, -20.36, 8557.50, -26.91, -23.42, 0.000, 0.000, 0.000, 11:37:52.178, 1560760672178
159, -16.85, -25.53, -23.09, -21.39, -20.47, 8597.22, -26.98, -23.20, 0.000, 0.000, 0.000, 11:37:52.178, 1560760672178
160, -16.83, -25.08, -23.20, -21.48, -20.54, 8574.53, -26.80, -23.40, 0.000, 0.000, 0.000, 11:37:52.178, 1560760672178
161, -16.79, -25.01, -23.11, -21.52, -20.45, 8538.79, -26.93, -23.47, 0.000, 0.000, 0.000, 11:37:52.178, 1560760672178
162, -16.81, -25.35, -23.34, -21.68, -20.34, 8555.55, -26.80, -23.40, 0.000, 0.000, 0.000, 11:37:52.179, 1560760672179
163, -17.03, -25.24, -23.40, -21.82, -20.47, 8554.15, -26.82, -23.36, 0.000, 0.000, 0.000, 11:37:52.179, 1560760672179
164, -16.96, -25.39, -23.27, -21.48, -20.30, 8540.56, -26.98, -23.22, 0.000, 0.000, 0.000, 11:37:52.179, 1560760672179
165, -16.85, -25.24, -23.11, -21.59, -20.45, 8565.79, -26.89, -23.27, 0.004, 0.056, -1.028, 11:37:52.179, 1560760672179
166, -16.70, -25.30, -23.25, -21.46, -20.50, 8587.61, -26.60, -23.07, 0.000, 0.000, 0.000, 11:37:52.179, 1560760672179
167, -16.79, -25.19, -23.27, -21.44, -20.56, 8603.50, -26.84, -23.16, 0.000, 0.000, 0.000, 11:37:52.179, 1560760672179
168, -16.85, -25.15, -23.04, -21.52, -20.65, 8581.08, -27.09, -23.36, 0.000, 0.000, 0.000, 11:37:52.179, 1560760672179
169, -16.67, -25.28, -22.93, -21.55, -20.65, 8582.56, -27.02, -23.38, 0.000, 0.000, 0.000, 11:37:52.179, 1560760672179
170, -16.92, -25.37, -23.16, -21.64, -20.68, 8551.35, -27.22, -23.45, 0.000, 0.000, 0.000, 11:37:52.180, 1560760672180
171, -16.76, -25.35, -23.49, -21.52, -20.47, 8564.14, -27.05, -23.38, 0.000, 0.000, 0.000, 11:37:52.180, 1560760672180
172, -16.88, -25.35, -23.34, -21.57, -20.27, 8603.61, -26.69, -23.49, 0.000, 0.000, 0.000, 11:37:52.180, 1560760672180
173, -16.92, -25.21, -23.07, -21.50, -20.43, 8613.87, -26.69, -23.56, 0.000, 0.000, 0.000, 11:37:52.180, 1560760672180
174, -16.90, -25.46, -23.16, -21.55, -20.45, 8597.82, -26.84, -23.78, 0.000, 0.000, 0.000, 11:37:52.181, 1560760672181
175, -17.01, -25.55, -23.16, -21.59, -20.32, 8565.34, -26.78, -23.38, 0.006, 0.058, -1.036, 11:37:52.181, 1560760672181
176, -16.92, -25.50, -23.00, -21.66, -20.54, 8594.38, -26.78, -23.11, 0.000, 0.000, 0.000, 11:37:52.181, 1560760672181
177, -16.85, -25.48, -23.34, -21.50, -20.38, 8564.92, -26.91, -23.27, 0.000, 0.000, 0.000, 11:37:52.181, 1560760672181
178, -16.81, -25.19, -23.40, -21.32, -20.41, 8578.76, -26.80, -23.45, 0.000, 0.000, 0.000, 11:37:52.181, 1560760672181
179, -16.70, -25.21, -23.22, -21.28, -20.47, 8612.10, -26.89, -23.11, 0.000, 0.000, 0.000, 11:37:52.181, 1560760672181
180, -16.83, -25.41, -22.93, -21.26, -20.65, 8521.69, -27.02, -23.22, 0.000, 0.000, 0.000, 11:37:52.181, 1560760672181
181, -16.81, -25.39, -23.11, -21.55, -20.85, 8546.73, -26.96, -23.60, 0.000, 0.000, 0.000, 11:37:52.181, 1560760672181
182, -16.85, -25.39, -23.22, -21.48, -20.50, 8579.78, -27.14, -23.40, 0.000, 0.000, 0.000, 11:37:52.181, 1560760672181
183, -16.70, -25.46, -23.18, -21.41, -20.38, 8588.19, -26.89, -23.31, 0.000, 0.000, 0.000, 11:37:52.181, 1560760672181
184, -16.65, -25.53, -23.25, -21.21, -20.36, 8584.43, -26.82, -23.34, 0.000, 0.000, 0.000, 11:37:52.181, 1560760672181
185, -16.79, -25.19, -23.22, -21.44, -20.36, 8563.80, -26.91, -23.40, 0.002, 0.058, -1.038, 11:37:52.182, 1560760672182
186, -16.83, -25.28, -23.09, -21.44, -20.16, 8585.48, -27.02, -23.51, 0.000, 0.000, 0.000, 11:37:52.182, 1560760672182
187, -16.83, -25.50, -23.22, -21.44, -20.32, 8590.29, -26.87, -23.45, 0.000, 0.000, 0.000, 11:37:52.182, 1560760672182
188, -16.85, -25.48, -23.45, -21.59, -20.54, 8553.81, -26.87, -23.51, 0.000, 0.000, 0.000, 11:37:52.182, 1560760672182
189, -16.79, -25.41, -23.47, -21.75, -20.63, 8555.26, -26.80, -23.36, 0.000, 0.000, 0.000, 11:37:52.182, 1560760672182
190, -16.67, -25.35, -23.22, -21.84, -20.47, 8578.51, -26.78, -23.29, 0.000, 0.000, 0.000, 11:37:52.182, 1560760672182
191, -16.76, -25.32, -23.18, -21.82, -20.36, 8578.31, -26.96, -23.29, 0.000, 0.000, 0.000, 11:37:52.182, 1560760672182
192, -17.01, -25.46, -23.40, -21.55, -20.54, 8568.05, -27.09, -23.51, 0.000, 0.000, 0.000, 11:37:52.182, 1560760672182
193, -17.01, -25.46, -23.40, -21.48, -20.50, 8596.10, -27.20, -23.45, 0.000, 0.000, 0.000, 11:37:52.183, 1560760672183
194, -17.01, -25.21, -23.49, -21.46, -20.54, 8587.14, -26.98, -23.20, 0.000, 0.000, 0.000, 11:37:52.183, 1560760672183
195, -16.85, -25.15, -23.27, -21.41, -20.70, 8574.73, -26.87, -23.58, 0.006, 0.058, -1.036, 11:37:52.183, 1560760672183
196, -16.92, -25.35, -23.18, -21.32, -20.38, 8602.09, -26.91, -23.47, 0.000, 0.000, 0.000, 11:37:52.183, 1560760672183
197, -16.74, -25.64, -23.22, -21.44, -20.36, 8576.12, -26.76, -23.49, 0.000, 0.000, 0.000, 11:37:52.183, 1560760672183
198, -16.67, -25.64, -23.38, -21.50, -20.47, 8580.21, -26.89, -23.87, 0.000, 0.000, 0.000, 11:37:52.183, 1560760672183
199, -16.83, -25.28, -23.27, -21.50, -20.36, 8592.01, -26.80, -23.69, 0.000, 0.000, 0.000, 11:37:52.183, 1560760672183
200, -16.70, -25.44, -23.34, -21.59, -20.56, 8596.32, -26.96, -23.42, 0.000, 0.000, 0.000, 11:37:52.184, 1560760672184
201, -16.74, -25.50, -23.27, -21.41, -20.63, 8584.72, -26.98, -23.38, 0.000, 0.000, 0.000, 11:37:52.184, 1560760672184
202, -16.72, -25.62, -23.07, -21.55, -20.27, 8574.93, -26.98, -23.40, 0.000, 0.000, 0.000, 11:37:52.184, 1560760672184
203, -16.79, -25.41, -23.16, -21.50, -20.25, 8600.10, -26.87, -23.27, 0.000, 0.000, 0.000, 11:37:52.184, 1560760672184
204, -16.92, -25.48, -23.34, -21.50, -20.34, 8576.39, -26.91, -23.34, 0.000, 0.000, 0.000, 11:37:52.184, 1560760672184
205, -16.92, -25.39, -23.16, -21.59, -20.07, 8579.58, -27.00, -23.34, 0.008, 0.056, -1.036, 11:37:52.184, 1560760672184
206, -16.96, -25.15, -23.20, -21.66, -20.32, 8565.52, -27.11, -23.63, 0.000, 0.000, 0.000, 11:37:52.184, 1560760672184
207, -16.72, -25.41, -23.18, -21.50, -20.47, 8605.44, -27.09, -23.58, 0.000, 0.000, 0.000, 11:37:52.184, 1560760672184
208, -16.74, -25.53, -23.40, -21.35, -20.70, 8625.36, -26.76, -23.45, 0.000, 0.000, 0.000, 11:37:52.184, 1560760672184
209, -16.70, -25.64, -23.27, -21.44, -20.70, 8611.77, -26.87, -23.29, 0.000, 0.000, 0.000, 11:37:52.184, 1560760672184
210, -16.90, -25.50, -23.27, -21.30, -20.41, 8564.41, -27.09, -23.42, 0.000, 0.000, 0.000, 11:37:52.185, 1560760672185
211, -16.88, -25.39, -23.29, -21.44, -20.52, 8566.46, -26.84, -23.83, 0.000, 0.000, 0.000, 11:37:52.185, 1560760672185
212, -16.83, -25.35, -23.16, -21.37, -20.52, 8578.33, -26.87, -23.49, 0.000, 0.000, 0.000, 11:37:52.185, 1560760672185
213, -16.88, -25.08, -23.07, -21.59, -20.70, 8587.38, -26.89, -23.51, 0.000, 0.000, 0.000, 11:37:52.185, 1560760672185
214, -16.92, -25.19, -23.04, -21.75, -20.47, 8577.64, -26.87, -23.38, 0.000, 0.000, 0.000, 11:37:52.185, 1560760672185
215, -16.83, -25.39, -23.22, -21.66, -20.54, 8565.59, -26.78, -23.42, 0.006, 0.056, -1.038, 11:37:52.186, 1560760672186
216, -16.92, -25.41, -23.31, -21.68, -20.70, 8586.51, -26.93, -23.27, 0.000, 0.000, 0.000, 11:37:52.186, 1560760672186
217, -16.81, -25.46, -23.18, -21.77, -20.50, 8596.10, -27.07, -23.34, 0.000, 0.000, 0.000, 11:37:52.186, 1560760672186
218, -16.81, -25.35, -23.16, -21.57, -20.54, 8601.02, -27.07, -23.27, 0.000, 0.000, 0.000, 11:37:52.187, 1560760672187
219, -16.83, -25.24, -23.27, -21.61, -20.45, 8572.32, -27.00, -23.34, 0.000, 0.000, 0.000, 11:37:52.187, 1560760672187
220, -16.85, -25.24, -23.16, -21.50, -20.41, 8560.03, -27.02, -23.47, 0.000, 0.000, 0.000, 11:37:52.187, 1560760672187
221, -16.90, -25.21, -23.22, -21.48, -20.47, 8588.79, -27.14, -23.29, 0.000, 0.000, 0.000, 11:37:52.187, 1560760672187
222, -17.12, -25.28, -23.29, -21.48, -20.30, 8611.52, -26.98, -23.60, 0.000, 0.000, 0.000, 11:37:52.187, 1560760672187
223, -16.90, -25.28, -23.11, -21.52, -20.36, 8604.04, -26.58, -23.54, 0.000, 0.000, 0.000, 11:37:52.188, 1560760672188
224, -16.70, -25.21, -23.04, -21.64, -20.54, 8583.76, -26.73, -23.07, 0.000, 0.000, 0.000, 11:37:52.188, 1560760672188
225, -16.70, -25.35, -23.22, -21.52, -20.54, 8583.27, -26.80, -23.40, 0.012, 0.052, -1.038, 11:37:52.188, 1560760672188
226, -16.70, -25.41, -22.98, -21.52, -20.70, 8570.98, -26.87, -23.45, 0.000, 0.000, 0.000, 11:37:52.188, 1560760672188
227, -16.94, -25.17, -23.13, -21.70, -20.81, 8582.04, -27.18, -23.40, 0.000, 0.000, 0.000, 11:37:52.188, 1560760672188
228, -16.92, -25.19, -23.51, -21.77, -20.59, 8588.25, -26.98, -23.47, 0.000, 0.000, 0.000, 11:37:52.188, 1560760672188
229, -16.74, -25.24, -23.56, -21.50, -20.38, 8571.54, -26.78, -23.60, 0.000, 0.000, 0.000, 11:37:52.189, 1560760672189
230, -16.83, -25.35, -23.20, -21.46, -20.38, 8549.61, -27.07, -23.49, 0.000, 0.000, 0.000, 11:37:52.189, 1560760672189
231, -16.85, -25.35, -23.13, -21.55, -20.43, 8566.57, -26.93, -23.51, 0.000, 0.000, 0.000, 11:37:52.189, 1560760672189
232, -16.92, -25.53, -23.11, -21.66, -20.30, 8616.80, -26.80, -23.72, 0.000, 0.000, 0.000, 11:37:52.189, 1560760672189
233, -16.85, -25.50, -23.11, -21.61, -20.38, 8590.29, -26.89, -23.72, 0.000, 0.000, 0.000, 11:37:52.189, 1560760672189
234, -16.94, -25.50, -23.22, -21.75, -20.47, 8570.06, -26.96, -23.45, 0.006, 0.046, -1.036, 11:37:52.189, 1560760672189
235, -17.08, -25.50, -23.29, -21.57, -20.50, 8571.74, -26.93, -23.49, 0.000, 0.000, 0.000, 11:37:52.189, 1560760672189
236, -17.12, -25.30, -23.36, -21.61, -20.21, 8601.73, -26.84, -23.51, 0.000, 0.000, 0.000, 11:37:52.189, 1560760672189
237, -17.14, -25.30, -23.18, -21.73, -20.43, 8619.91, -26.80, -23.56, 0.000, 0.000, 0.000, 11:37:52.189, 1560760672189
238, -16.92, -25.28, -23.22, -21.70, -20.54, 8606.49, -26.84, -23.34, 0.000, 0.000, 0.000, 11:37:52.189, 1560760672189
239, -16.92, -25.41, -23.18, -21.77, -20.43, 8562.15, -26.87, -23.31, 0.000, 0.000, 0.000, 11:37:52.189, 1560760672189
240, -16.81, -25.53, -23.20, -21.61, -20.54, 8558.64, -26.84, -23.51, 0.000, 0.000, 0.000, 11:37:52.593, 1560760672593
241, -17.03, -25.41, -23.18, -21.68, -20.61, 8561.19, -26.91, -23.45, 0.000, 0.000, 0.000, 11:37:52.594, 1560760672594
242, -16.79, -25.41, -23.00, -21.59, -20.52, 8573.08, -26.89, -23.29, 0.000, 0.000, 0.000, 11:37:52.594, 1560760672594
243, -16.61, -25.46, -22.96, -21.70, -20.36, 8583.20, -26.84, -23.38, 0.000, 0.000, 0.000, 11:37:52.594, 1560760672594
244, -16.72, -25.35, -23.16, -21.79, -20.43, 8578.67, -26.89, -23.40, 0.004, 0.056, -1.036, 11:37:52.594, 1560760672594
245, -16.41, -25.46, -23.40, -21.50, -20.54, 8584.37, -26.71, -23.34, 0.000, 0.000, 0.000, 11:37:52.594, 1560760672594
246, -16.50, -25.41, -23.27, -21.30, -20.54, 8568.07, -26.73, -23.25, 0.000, 0.000, 0.000, 11:37:52.595, 1560760672595
247, -16.65, -25.41, -23.27, -21.75, -20.59, 8583.70, -26.78, -23.65, 0.000, 0.000, 0.000, 11:37:52.595, 1560760672595
248, -16.85, -25.50, -23.16, -21.88, -20.25, 8612.17, -26.84, -23.63, 0.000, 0.000, 0.000, 11:37:52.595, 1560760672595
249, -16.47, -25.53, -23.38, -21.41, -20.43, 8609.06, -27.02, -23.34, 0.000, 0.000, 0.000, 11:37:52.595, 1560760672595
250, -16.56, -25.46, -23.36, -21.46, -20.47, 8595.72, -27.02, -23.25, 0.000, 0.000, 0.000, 11:37:52.595, 1560760672595
251, -16.76, -25.46, -23.47, -21.44, -20.50, 8578.84, -26.91, -23.29, 0.000, 0.000, 0.000, 11:37:52.595, 1560760672595
252, -16.79, -25.46, -23.47, -21.50, -20.63, 8581.19, -27.14, -23.27, 0.000, 0.000, 0.000, 11:37:52.595, 1560760672595
253, -16.61, -25.39, -23.38, -21.44, -20.47, 8565.70, -27.14, -23.42, 0.000, 0.000, 0.000, 11:37:52.595, 1560760672595
254, -16.70, -25.48, -23.25, -21.55, -20.59, 8578.42, -26.76, -23.34, 0.008, 0.056, -1.036, 11:37:52.595, 1560760672595
255, -16.83, -25.39, -23.20, -21.73, -20.52, 8596.12, -26.51, -23.60, 0.000, 0.000, 0.000, 11:37:52.595, 1560760672595
0, -16.76, -25.41, -23.20, -21.57, -20.41, 8587.56, -26.73, -23.38, 0.000, 0.000, 0.000, 11:37:52.595, 1560760672595
1, -17.01, -25.57, -23.09, -21.55, -20.41, 8591.99, -26.82, -23.38, 0.000, 0.000, 0.000, 11:37:52.595, 1560760672595
2, -17.03, -25.68, -23.45, -21.44, -20.38, 8591.90, -26.89, -23.45, 0.000, 0.000, 0.000, 11:37:52.595, 1560760672595
3, -16.81, -25.39, -23.29, -21.64, -20.23, 8580.39, -27.07, -23.49, 0.000, 0.000, 0.000, 11:37:52.595, 1560760672595
4, -16.67, -25.39, -22.96, -21.41, -20.25, 8563.85, -26.84, -23.38, 0.000, 0.000, 0.000, 11:37:52.595, 1560760672595
5, -16.90, -25.17, -23.07, -21.39, -20.61, 8571.69, -26.89, -23.22, 0.000, 0.000, 0.000, 11:37:52.595, 1560760672595
6, -16.96, -25.28, -23.16, -21.86, -20.72, 8594.78, -26.84, -23.67, 0.000, 0.000, 0.000, 11:37:52.596, 1560760672596
7, -16.79, -25.30, -23.29, -21.77, -20.54, 8585.04, -26.96, -23.67, 0.000, 0.000, 0.000, 11:37:52.596, 1560760672596
8, -16.67, -25.39, -23.22, -21.50, -20.52, 8599.19, -27.07, -23.42, 0.010, 0.052, -1.040, 11:37:52.596, 1560760672596
9, -16.58, -25.62, -23.13, -21.55, -20.61, 8578.04, -27.02, -23.38, 0.000, 0.000, 0.000, 11:37:52.596, 1560760672596
10, -16.67, -25.57, -23.54, -21.55, -20.43, 8588.90, -26.87, -23.31, 0.000, 0.000, 0.000, 11:37:52.596, 1560760672596
11, -16.81, -25.26, -23.47, -21.55, -20.36, 8576.25, -26.84, -23.34, 0.000, 0.000, 0.000, 11:37:52.596, 1560760672596
12, -16.85, -25.24, -23.36, -21.59, -20.50, 8556.94, -26.84, -23.40, 0.000, 0.000, 0.000, 11:37:52.596, 1560760672596
13, -16.79, -25.48, -23.29, -21.70, -20.50, 8559.73, -27.09, -23.38, 0.000, 0.000, 0.000, 11:37:52.596, 1560760672596
14, -16.94, -25.39, -23.16, -21.61, -20.59, 8599.41, -26.91, -23.07, 0.000, 0.000, 0.000, 11:37:52.596, 1560760672596
15, -16.72, -25.44, -23.31, -21.52, -20.56, 8584.57, -26.87, -23.11, 0.000, 0.000, 0.000, 11:37:52.596, 1560760672596
16, -16.67, -25.39, -23.56, -21.39, -20.50, 8572.54, -26.96, -23.34, 0.000, 0.000, 0.000, 11:37:52.596, 1560760672596
17, -16.67, -25.35, -23.45, -21.55, -20.36, 8608.46, -26.89, -23.42, 0.000, 0.000, 0.000, 11:37:52.596, 1560760672596
18, -16.76, -25.39, -23.38, -21.52, -20.23, 8624.11, -26.93, -23.20, 0.014, 0.052, -1.042, 11:37:52.596, 1560760672596
19, -16.83, -25.62, -23.49, -21.44, -20.54, 8580.03, -26.80, -23.31, 0.000, 0.000, 0.000, 11:37:52.596, 1560760672596
20, -16.70, -25.46, -23.09, -21.32, -20.36, 8582.09, -26.73, -23.47, 0.000, 0.000, 0.000, 11:37:52.596, 1560760672596
21, -16.74, -25.30, -23.22, -21.26, -20.59, 8629.85, -26.80, -23.34, 0.000, 0.000, 0.000, 11:37:52.597, 1560760672597
22, -16.81, -25.32, -23.34, -21.61, -20.65, 8613.09, -26.84, -23.29, 0.000, 0.000, 0.000, 11:37:52.597, 1560760672597
23, -16.74, -25.39, -23.29, -21.55, -20.65, 8605.80, -27.09, -23.29, 0.000, 0.000, 0.000, 11:37:52.597, 1560760672597
24, -16.81, -25.28, -23.22, -21.17, -20.61, 8589.89, -27.07, -23.22, 0.000, 0.000, 0.000, 11:37:52.597, 1560760672597
25, -16.74, -25.26, -23.34, -21.32, -20.43, 8574.26, -27.14, -23.27, 0.000, 0.000, 0.000, 11:37:52.597, 1560760672597
26, -16.56, -25.17, -23.34, -21.66, -20.32, 8594.58, -26.67, -23.38, 0.000, 0.000, 0.000, 11:37:52.597, 1560760672597
27, -16.61, -25.28, -23.13, -21.32, -20.27, 8624.44, -26.89, -23.45, 0.000, 0.000, 0.000, 11:37:52.597, 1560760672597
28, -16.74, -25.24, -23.16, -21.41, -20.61, 8579.09, -26.89, -23.40, 0.010, 0.058, -1.042, 11:37:52.597, 1560760672597
29, -16.79, -25.08, -23.51, -21.46, -20.65, 8585.53, -26.87, -23.29, 0.000, 0.000, 0.000, 11:37:52.597, 1560760672597
30, -16.99, -25.03, -23.40, -21.61, -20.43, 8595.85, -26.98, -23.38, 0.000, 0.000, 0.000, 11:37:52.597, 1560760672597
31, -16.90, -25.12, -22.96, -21.55, -20.54, 8600.95, -26.93, -23.36, 0.000, 0.000, 0.000, 11:37:52.597, 1560760672597
32, -16.90, -25.37, -23.07, -21.77, -20.65, 8586.38, -26.76, -23.42, 0.000, 0.000, 0.000, 11:37:52.597, 1560760672597
33, -16.74, -25.37, -23.31, -21.61, -20.74, 8586.82, -26.89, -23.49, 0.000, 0.000, 0.000, 11:37:52.597, 1560760672597
34, -16.70, -25.28, -23.29, -21.21, -20.54, 8566.86, -27.02, -23.40, 0.000, 0.000, 0.000, 11:37:52.597, 1560760672597
35, -16.83, -25.39, -23.20, -21.39, -20.54, 8579.78, -26.98, -23.29, 0.000, 0.000, 0.000, 11:37:52.597, 1560760672597
36, -16.79, -25.35, -23.18, -21.48, -20.47, 8561.08, -26.93, -23.40, 0.000, 0.000, 0.000, 11:37:52.597, 1560760672597
37, -16.63, -25.50, -23.34, -21.61, -20.47, 8578.60, -26.93, -23.18, 0.000, 0.000, 0.000, 11:37:52.598, 1560760672598
38, -16.79, -25.39, -23.45, -21.48, -20.50, 8589.40, -26.96, -23.16, 0.012, 0.056, -1.040, 11:37:52.598, 1560760672598
39, -16.74, -25.10, -23.42, -21.48, -20.52, 8554.12, -27.09, -23.27, 0.000, 0.000, 0.000, 11:37:52.598, 1560760672598
40, -16.70, -25.37, -23.31, -21.39, -20.54, 8532.58, -26.98, -23.49, 0.000, 0.000, 0.000, 11:37:52.598, 1560760672598
41, -16.63, -25.24, -23.04, -21.61, -20.52, 8558.01, -26.84, -23.38, 0.000, 0.000, 0.000, 11:37:52.598, 1560760672598
42, -16.85, -25.39, -23.16, -21.59, -20.32, 8579.81, -26.96, -23.13, 0.000, 0.000, 0.000, 11:37:52.598, 1560760672598
43, -16.88, -25.32, -23.31, -21.48, -20.50, 8581.46, -26.98, -23.45, 0.000, 0.000, 0.000, 11:37:52.598, 1560760672598
44, -16.83, -25.30, -23.31, -21.35, -20.61, 8585.55, -26.82, -23.40, 0.000, 0.000, 0.000, 11:37:52.598, 1560760672598
45, -16.90, -25.37, -23.34, -21.55, -20.43, 8616.11, -26.80, -23.47, 0.000, 0.000, 0.000, 11:37:52.598, 1560760672598
46, -16.90, -25.35, -23.49, -21.39, -20.54, 8610.54, -26.71, -23.49, 0.000, 0.000, 0.000, 11:37:52.598, 1560760672598
47, -16.92, -25.46, -23.34, -21.39, -20.63, 8602.05, -26.80, -23.38, 0.000, 0.000, 0.000, 11:37:52.598, 1560760672598
48, -16.70, -25.55, -23.18, -21.55, -20.54, 8582.47, -26.62, -23.49, 0.010, 0.054, -1.040, 11:37:52.598, 1560760672598
49, -16.79, -25.35, -23.20, -21.66, -20.36, 8577.03, -26.69, -23.42, 0.000, 0.000, 0.000, 11:37:52.598, 1560760672598
50, -16.81, -25.19, -23.27, -21.75, -20.47, 8574.42, -26.96, -23.51, 0.000, 0.000, 0.000, 11:37:52.598, 1560760672598
51, -16.85, -25.19, -23.29, -21.61, -20.47, 8598.22, -27.02, -23.29, 0.000, 0.000, 0.000, 11:37:52.598, 1560760672598
52, -16.83, -25.37, -23.38, -21.68, -20.90, 8607.52, -27.11, -23.16, 0.000, 0.000, 0.000, 11:37:52.599, 1560760672599
53, -16.79, -25.44, -23.25, -21.48, -20.76, 8572.59, -26.87, -23.20, 0.000, 0.000, 0.000, 11:37:52.599, 1560760672599
54, -16.92, -25.37, -23.25, -21.41, -20.36, 8529.49, -26.89, -23.51, 0.000, 0.000, 0.000, 11:37:52.599, 1560760672599
55, -16.70, -25.37, -23.25, -21.46, -20.45, 8529.69, -26.98, -23.29, 0.000, 0.000, 0.000, 11:37:52.599, 1560760672599
56, -16.74, -25.39, -23.34, -21.59, -20.43, 8572.03, -26.91, -23.07, 0.000, 0.000, 0.000, 11:37:52.599, 1560760672599
57, -16.63, -25.46, -23.38, -21.39, -20.50, 8608.35, -26.80, -22.89, 0.000, 0.000, 0.000, 11:37:52.599, 1560760672599
58, -16.79, -25.39, -23.18, -21.44, -20.52, 8597.93, -26.80, -23.11, 0.008, 0.052, -1.040, 11:37:52.599, 1560760672599
59, -16.70, -25.28, -23.09, -21.57, -20.50, 8580.54, -26.91, -23.34, 0.000, 0.000, 0.000, 11:37:52.599, 1560760672599
60, -16.65, -25.15, -23.27, -21.75, -20.54, 8566.24, -26.87, -23.40, 0.000, 0.000, 0.000, 11:37:52.599, 1560760672599
61, -16.83, -25.24, -22.93, -21.70, -20.43, 8567.33, -27.00, -23.51, 0.000, 0.000, 0.000, 11:37:52.600, 1560760672600
62, -16.81, -25.41, -22.96, -21.70, -20.68, 8608.06, -26.87, -23.40, 0.000, 0.000, 0.000, 11:37:52.600, 1560760672600
63, -16.76, -25.26, -23.11, -21.70, -20.79, 8577.01, -26.98, -23.45, 0.000, 0.000, 0.000, 11:37:52.600, 1560760672600
64, -16.90, -25.35, -23.04, -21.55, -20.52, 8592.08, -26.93, -23.72, 0.000, 0.000, 0.000, 11:37:52.600, 1560760672600
65, -16.81, -25.17, -23.34, -21.82, -20.65, 8577.95, -26.87, -23.56, 0.000, 0.000, 0.000, 11:37:52.600, 1560760672600
66, -16.81, -25.44, -23.27, -21.86, -20.65, 8574.29, -26.98, -23.56, 0.000, 0.000, 0.000, 11:37:52.600, 1560760672600
67, -16.92, -25.28, -23.02, -21.70, -20.59, 8570.26, -26.80, -23.51, 0.000, 0.000, 0.000, 11:37:52.600, 1560760672600
68, -16.96, -25.39, -23.20, -21.82, -20.54, 8548.51, -26.64, -23.25, 0.008, 0.050, -1.048, 11:37:52.600, 1560760672600
69, -16.88, -25.39, -23.25, -21.57, -20.61, 8544.16, -26.82, -23.27, 0.000, 0.000, 0.000, 11:37:52.600, 1560760672600
70, -16.83, -25.06, -23.20, -21.37, -20.52, 8546.39, -26.98, -23.31, 0.000, 0.000, 0.000, 11:37:52.600, 1560760672600
71, -16.96, -25.32, -23.27, -21.44, -20.70, 8582.51, -26.98, -23.36, 0.000, 0.000, 0.000, 11:37:52.601, 1560760672601
72, -17.08, -25.48, -23.11, -21.37, -20.61, 8610.70, -27.07, -23.45, 0.000, 0.000, 0.000, 11:37:52.601, 1560760672601
73, -16.88, -25.37, -23.09, -21.37, -20.54, 8608.44, -27.00, -23.49, 0.000, 0.000, 0.000, 11:37:52.601, 1560760672601
74, -16.74, -25.26, -23.34, -21.44, -20.47, 8580.50, -26.93, -23.54, 0.000, 0.000, 0.000, 11:37:52.601, 1560760672601
75, -16.63, -25.24, -23.45, -21.70, -20.72, 8566.73, -27.05, -23.38, 0.000, 0.000, 0.000, 11:37:52.601, 1560760672601
76, -16.85, -25.26, -23.22, -21.66, -20.56, 8574.75, -26.89, -23.38, 0.000, 0.000, 0.000, 11:37:52.601, 1560760672601
77, -16.96, -25.37, -23.25, -21.70, -20.32, 8583.56, -26.84, -23.72, 0.000, 0.000, 0.000, 11:37:52.601, 1560760672601
78, -16.79, -25.41, -23.51, -21.61, -20.27, 8580.54, -26.80, -23.51, 0.008, 0.052, -1.036, 11:37:52.601, 1560760672601
79, -16.85, -25.35, -23.40, -21.75, -20.27, 8570.24, -26.73, -23.51, 0.000, 0.000, 0.000, 11:37:52.601, 1560760672601
80, -16.96, -25.44, -23.25, -21.66, -20.61, 8548.67, -26.89, -23.45, 0.000, 0.000, 0.000, 11:37:52.602, 1560760672602
81, -16.81, -25.39, -22.98, -21.41, -20.63, 8574.93, -27.02, -23.34, 0.000, 0.000, 0.000, 11:37:52.602, 1560760672602
82, -16.65, -25.35, -23.13, -21.57, -20.43, 8598.56, -27.14, -23.36, 0.000, 0.000, 0.000, 11:37:52.603, 1560760672603
83, -16.83, -25.68, -23.27, -21.66, -20.45, 8577.50, -27.07, -23.51, 0.000, 0.000, 0.000, 11:37:52.603, 1560760672603
84, -16.90, -25.48, -23.38, -21.48, -20.43, 8559.42, -26.89, -23.45, 0.000, 0.000, 0.000, 11:37:52.604, 1560760672604
85, -17.01, -25.19, -23.22, -21.57, -20.70, 8578.11, -26.91, -23.16, 0.000, 0.000, 0.000, 11:37:52.604, 1560760672604
86, -16.96, -25.35, -23.16, -21.44, -20.50, 8588.79, -26.87, -23.45, 0.000, 0.000, 0.000, 11:37:52.604, 1560760672604
87, -16.85, -25.30, -23.16, -21.50, -20.61, 8581.75, -26.69, -23.45, 0.004, 0.042, -1.034, 11:37:52.604, 1560760672604
88, -16.81, -25.26, -23.20, -21.30, -20.68, 8556.65, -26.87, -23.40, 0.000, 0.000, 0.000, 11:37:52.604, 1560760672604
89, -16.63, -25.39, -23.29, -21.50, -20.50, 8578.62, -26.87, -23.22, 0.000, 0.000, 0.000, 11:37:52.604, 1560760672604
90, -16.90, -25.55, -23.09, -21.61, -20.43, 8593.89, -26.96, -23.38, 0.000, 0.000, 0.000, 11:37:52.604, 1560760672604
91, -16.81, -25.59, -23.18, -21.37, -20.47, 8599.63, -27.02, -23.38, 0.000, 0.000, 0.000, 11:37:52.604, 1560760672604
92, -16.96, -25.59, -23.22, -21.48, -20.59, 8611.66, -26.80, -23.42, 0.000, 0.000, 0.000, 11:37:52.605, 1560760672605
93, -16.99, -25.46, -23.38, -21.59, -20.54, 8595.79, -26.87, -23.40, 0.000, 0.000, 0.000, 11:37:52.605, 1560760672605
94, -17.05, -25.30, -23.02, -21.55, -20.34, 8588.50, -26.84, -23.31, 0.000, 0.000, 0.000, 11:37:52.605, 1560760672605
95, -16.85, -25.21, -23.09, -21.66, -20.34, 8582.58, -26.80, -23.47, 0.000, 0.000, 0.000, 11:37:52.605, 1560760672605
96, -16.76, -25.28, -23.25, -21.44, -20.45, 8590.36, -27.02, -23.40, 0.000, 0.000, 0.000, 11:37:52.605, 1560760672605
97, -17.12, -25.30, -23.18, -21.50, -20.50, 8593.69, -27.18, -23.38, 0.010, 0.048, -1.032, 11:37:52.605, 1560760672605
98, -16.90, -25.24, -23.04, -21.44, -20.36, 8567.62, -27.09, -23.29, 0.000, 0.000, 0.000, 11:37:52.605, 1560760672605
99, -16.67, -25.24, -23.20, -21.66, -20.32, 8525.51, -26.87, -23.25, 0.000, 0.000, 0.000, 11:37:52.605, 1560760672605
100, -16.79, -25.41, -23.38, -21.68, -20.25, 8532.11, -26.73, -23.27, 0.000, 0.000, 0.000, 11:37:52.605, 1560760672605
101, -16.85, -25.17, -23.36, -21.41, -20.56, 8548.54, -26.76, -23.18, 0.000, 0.000, 0.000, 11:37:52.606, 1560760672606
102, -16.79, -25.24, -23.36, -21.28, -20.61, 8541.27, -26.76, -23.27, 0.000, 0.000, 0.000, 11:37:52.606, 1560760672606
103, -16.96, -25.30, -23.34, -21.52, -20.36, 8544.31, -26.87, -23.27, 0.000, 0.000, 0.000, 11:37:52.606, 1560760672606
104, -16.92, -25.35, -23.11, -21.44, -20.61, 8564.03, -26.96, -23.45, 0.000, 0.000, 0.000, 11:37:53.060, 1560760673060
105, -16.85, -25.19, -23.20, -21.44, -20.72, 8569.12, -27.00, -23.27, 0.000, 0.000, 0.000, 11:37:53.060, 1560760673060
106, -16.90, -25.35, -23.18, -21.50, -20.63, 8598.42, -27.09, -23.27, 0.000, 0.000, 0.000, 11:37:53.060, 1560760673060
107, -16.72, -25.37, -22.91, -21.64, -20.54, 8571.11, -26.84, -23.29, 0.008, 0.048, -1.026, 11:37:53.060, 1560760673060
108, -16.58, -25.35, -23.02, -21.50, -20.50, 8552.34, -26.80, -23.36, 0.000, 0.000, 0.000, 11:37:53.060, 1560760673060
109, -16.85, -25.19, -23.25, -21.75, -20.32, 8559.04, -26.69, -23.40, 0.000, 0.000, 0.000, 11:37:53.060, 1560760673060
110, -16.81, -25.35, -23.34, -21.55, -20.32, 8559.80, -26.80, -23.40, 0.000, 0.000, 0.000, 11:37:53.060, 1560760673060
111, -16.83, -25.32, -23.38, -21.32, -20.36, 8567.29, -27.05, -23.51, 0.000, 0.000, 0.000, 11:37:53.060, 1560760673060
112, -16.65, -25.53, -23.02, -21.52, -20.54, 8584.72, -26.87, -23.47, 0.000, 0.000, 0.000, 11:37:53.060, 1560760673060
113, -16.72, -25.57, -23.13, -21.26, -20.61, 8605.33, -26.91, -23.38, 0.000, 0.000, 0.000, 11:37:53.061, 1560760673061
114, -16.65, -25.46, -23.29, -21.41, -20.56, 8564.29, -26.93, -23.29, 0.000, 0.000, 0.000, 11:37:53.061, 1560760673061
115, -16.85, -25.19, -23.29, -21.86, -20.63, 8561.23, -27.02, -23.42, 0.000, 0.000, 0.000, 11:37:53.061, 1560760673061
116, -16.96, -25.46, -23.22, -21.84, -20.74, 8591.03, -26.84, -23.20, 0.000, 0.000, 0.000, 11:37:53.061, 1560760673061
117, -16.79, -25.53, -23.34, -21.70, -20.68, 8568.38, -26.98, -23.27, 0.014, 0.058, -1.030, 11:37:53.061, 1560760673061
118, -16.65, -25.30, -23.29, -21.59, -20.65, 8589.42, -26.87, -23.49, 0.000, 0.000, 0.000, 11:37:53.061, 1560760673061
119, -16.85, -25.24, -23.27, -21.41, -20.54, 8569.61, -26.82, -23.45, 0.000, 0.000, 0.000, 11:37:53.061, 1560760673061
120, -16.79, -25.30, -23.18, -21.70, -20.43, 8577.39, -26.93, -23.34, 0.000, 0.000, 0.000, 11:37:53.061, 1560760673061
121, -16.72, -25.21, -23.22, -21.68, -20.25, 8569.21, -26.91, -23.42, 0.000, 0.000, 0.000, 11:37:53.061, 1560760673061
122, -17.10, -25.30, -23.22, -21.66, -20.43, 8606.23, -26.98, -23.51, 0.000, 0.000, 0.000, 11:37:53.061, 1560760673061
123, -16.96, -25.37, -23.22, -21.46, -20.50, 8598.40, -27.09, -23.45, 0.000, 0.000, 0.000, 11:37:53.061, 1560760673061
124, -16.70, -25.24, -23.02, -21.37, -20.38, 8556.72, -26.84, -23.38, 0.000, 0.000, 0.000, 11:37:53.062, 1560760673062
125, -16.72, -25.28, -23.16, -21.59, -20.47, 8518.52, -26.73, -23.49, 0.000, 0.000, 0.000, 11:37:53.062, 1560760673062
126, -16.63, -25.28, -23.45, -21.61, -20.32, 8556.56, -26.84, -23.38, 0.000, 0.000, 0.000, 11:37:53.062, 1560760673062
127, -16.81, -25.12, -23.29, -21.75, -20.43, 8596.55, -26.76, -23.40, 0.012, 0.054, -1.030, 11:37:53.062, 1560760673062
128, -16.92, -25.32, -23.09, -21.70, -20.47, 8608.46, -26.78, -23.38, 0.000, 0.000, 0.000, 11:37:53.062, 1560760673062
129, -16.92, -25.41, -23.11, -21.73, -20.23, 8582.53, -26.84, -23.29, 0.000, 0.000, 0.000, 11:37:53.062, 1560760673062
130, -16.85, -25.44, -22.89, -21.68, -20.38, 8569.46, -26.64, -23.45, 0.000, 0.000, 0.000, 11:37:53.063, 1560760673063
131, -16.79, -25.53, -23.31, -21.84, -20.34, 8579.18, -26.62, -23.49, 0.000, 0.000, 0.000, 11:37:53.063, 1560760673063
132, -16.90, -25.50, -23.34, -21.64, -20.21, 8611.39, -26.71, -23.38, 0.000, 0.000, 0.000, 11:37:53.063, 1560760673063
133, -17.01, -25.35, -23.34, -21.66, -20.23, 8582.15, -26.98, -23.40, 0.000, 0.000, 0.000, 11:37:53.063, 1560760673063
134, -17.08, -25.32, -23.02, -21.50, -20.36, 8558.77, -27.05, -23.45, 0.000, 0.000, 0.000, 11:37:53.064, 1560760673064
135, -16.81, -25.30, -23.18, -21.46, -20.38, 8569.41, -26.96, -23.40, 0.000, 0.000, 0.000, 11:37:53.064, 1560760673064
136, -16.79, -25.15, -23.38, -21.61, -20.54, 8559.80, -26.87, -23.13, 0.000, 0.000, 0.000, 11:37:53.064, 1560760673064
137, -16.79, -25.30, -23.42, -21.48, -20.45, 8568.38, -26.69, -23.25, 0.010, 0.056, -1.036, 11:37:53.064, 1560760673064
138, -16.90, -25.15, -23.29, -21.46, -20.14, 8562.17, -26.84, -23.22, 0.000, 0.000, 0.000, 11:37:53.064, 1560760673064
139, -17.12, -25.30, -23.22, -21.50, -20.27, 8560.16, -26.87, -23.34, 0.000, 0.000, 0.000, 11:37:53.064, 1560760673064
140, -16.81, -25.46, -23.38, -21.37, -20.34, 8580.68, -26.80, -23.74, 0.000, 0.000, 0.000, 11:37:53.064, 1560760673064
141, -16.79, -25.24, -23.27, -21.30, -20.36, 8578.55, -27.02, -23.56, 0.000, 0.000, 0.000, 11:37:53.064, 1560760673064
142, -17.03, -24.97, -23.34, -21.46, -20.68, 8603.48, -27.02, -23.42, 0.000, 0.000, 0.000, 11:37:53.065, 1560760673065
143, -16.85, -25.21, -23.31, -21.55, -20.43, 8583.76, -26.98, -23.13, 0.000, 0.000, 0.000, 11:37:53.065, 1560760673065
144, -16.79, -25.17, -23.45, -21.66, -20.27, 8592.79, -27.07, -23.49, 0.000, 0.000, 0.000, 11:37:53.065, 1560760673065
145, -16.74, -25.53, -23.18, -21.57, -20.36, 8575.72, -26.53, -23.34, 0.000, 0.000, 0.000, 11:37:53.065, 1560760673065
146, -16.85, -25.55, -23.16, -21.37, -20.43, 8594.94, -26.58, -23.18, 0.000, 0.000, 0.000, 11:37:53.065, 1560760673065
147, -16.74, -25.39, -23.18, -21.46, -20.59, 8588.30, -26.62, -23.29, 0.008, 0.054, -1.034, 11:37:53.065, 1560760673065
148, -16.90, -25.35, -23.25, -21.61, -20.43, 8572.12, -26.69, -23.36, 0.000, 0.000, 0.000, 11:37:53.065, 1560760673065
149, -16.96, -25.35, -23.20, -21.64, -20.47, 8568.38, -26.93, -23.27, 0.000, 0.000, 0.000, 11:37:53.066, 1560760673066
150, -16.88, -25.41, -23.13, -21.59, -20.34, 8570.13, -26.82, -23.22, 0.000, 0.000, 0.000, 11:37:53.066, 1560760673066
151, -16.85, -25.39, -23.42, -21.61, -20.70, 8552.69, -26.93, -23.38, 0.000, 0.000, 0.000, 11:37:53.066, 1560760673066
152, -16.92, -25.17, -23.45, -21.41, -20.54, 8589.73, -26.96, -23.38, 0.000, 0.000, 0.000, 11:37:53.066, 1560760673066
153, -16.92, -25.46, -23.42, -21.44, -20.34, 8618.36, -27.02, -23.51, 0.000, 0.000, 0.000, 11:37:53.066, 1560760673066
154, -16.74, -25.41, -23.16, -21.48, -20.38, 8596.95, -26.87, -23.47, 0.000, 0.000, 0.000, 11:37:53.066, 1560760673066
155, -16.79, -25.26, -23.38, -21.44, -20.36, 8541.36, -26.84, -23.36, 0.000, 0.000, 0.000, 11:37:53.066, 1560760673066
156, -16.61, -25.44, -23.22, -21.52, -20.43, 8552.51, -27.00, -23.40, 0.000, 0.000, 0.000, 11:37:53.066, 1560760673066
157, -16.56, -25.30, -23.34, -21.55, -20.32, 8590.11, -26.89, -23.29, 0.006, 0.054, -1.030, 11:37:53.067, 1560760673067
158, -16.67, -25.32, -23.16, -21.52, -20.43, 8590.94, -26.73, -23.29, 0.000, 0.000, 0.000, 11:37:53.067, 1560760673067
159, -16.63, -25.35, -23.04, -21.50, -20.50, 8580.79, -27.02, -23.27, 0.000, 0.000, 0.000, 11:37:53.067, 1560760673067
160, -16.70, -25.39, -23.25, -21.79, -20.47, 8579.81, -26.91, -23.27, 0.000, 0.000, 0.000, 11:37:53.067, 1560760673067
161, -17.03, -25.59, -23.22, -21.61, -20.50, 8590.92, -26.84, -23.49, 0.000, 0.000, 0.000, 11:37:53.067, 1560760673067
162, -16.85, -25.55, -23.40, -21.37, -20.43, 8562.73, -26.87, -23.49, 0.000, 0.000, 0.000, 11:37:53.067, 1560760673067
163, -16.96, -25.53, -23.22, -21.50, -20.50, 8588.72, -26.96, -23.60, 0.000, 0.000, 0.000, 11:37:53.067, 1560760673067
164, -16.94, -25.24, -23.11, -21.55, -20.45, 8582.62, -26.64, -23.45, 0.000, 0.000, 0.000, 11:37:53.067, 1560760673067
165, -17.08, -25.21, -23.40, -21.55, -20.63, 8561.08, -26.71, -23.49, 0.000, 0.000, 0.000, 11:37:53.069, 1560760673069
166, -16.81, -25.24, -23.38, -21.48, -20.76, 8615.05, -26.78, -23.51, 0.000, 0.000, 0.000, 11:37:53.069, 1560760673069
167, -16.72, -25.30, -23.29, -21.50, -20.61, 8581.13, -26.87, -23.38, 0.012, 0.054, -1.032, 11:37:53.070, 1560760673070
168, -16.85, -25.24, -23.22, -21.61, -20.43, 8542.41, -26.93, -23.49, 0.000, 0.000, 0.000, 11:37:53.070, 1560760673070
169, -16.74, -25.19, -23.07, -21.52, -20.56, 8556.76, -26.84, -23.49, 0.000, 0.000, 0.000, 11:37:53.070, 1560760673070
170, -16.99, -25.53, -23.29, -21.82, -20.43, 8550.73, -26.73, -23.29, 0.000, 0.000, 0.000, 11:37:53.070, 1560760673070
171, -16.81, -25.64, -23.45, -21.70, -20.70, 8560.85, -26.58, -23.36, 0.000, 0.000, 0.000, 11:37:53.070, 1560760673070
172, -16.85, -25.41, -23.11, -21.55, -20.45, 8568.34, -26.82, -23.45, 0.000, 0.000, 0.000, 11:37:53.070, 1560760673070
173, -16.92, -25.39, -23.07, -21.39, -20.38, 8588.77, -26.91, -23.47, 0.000, 0.000, 0.000, 11:37:53.070, 1560760673070
174, -16.83, -25.37, -23.18, -21.44, -20.41, 8563.18, -26.80, -23.40, 0.000, 0.000, 0.000, 11:37:53.071, 1560760673071
175, -16.74, -25.55, -23.29, -21.48, -20.47, 8561.03, -26.71, -23.38, 0.000, 0.000, 0.000, 11:37:53.071, 1560760673071
176, -16.61, -25.50, -23.22, -21.66, -20.59, 8587.14, -26.87, -23.38, 0.000, 0.000, 0.000, 11:37:53.071, 1560760673071
177, -16.67, -25.44, -23.07, -21.61, -20.52, 8570.33, -26.96, -23.56, 0.010, 0.056, -1.034, 11:37:53.071, 1560760673071
178, -16.85, -25.53, -23.02, -21.57, -20.65, 8588.79, -26.78, -23.47, 0.000, 0.000, 0.000, 11:37:53.071, 1560760673071
179, -16.63, -25.55, -23.07, -21.64, -20.72, 8582.42, -26.64, -23.34, 0.000, 0.000, 0.000, 11:37:53.071, 1560760673071
180, -16.54, -25.46, -23.25, -21.64, -20.61, 8552.54, -26.80, -23.40, 0.000, 0.000, 0.000, 11:37:53.071, 1560760673071
181, -16.70, -25.24, -23.38, -21.75, -20.56, 8559.04, -27.09, -23.51, 0.000, 0.000, 0.000, 11:37:53.071, 1560760673071
182, -16.79, -25.50, -23.22, -21.77, -20.61, 8629.61, -26.98, -23.72, 0.000, 0.000, 0.000, 11:37:53.071, 1560760673071
183, -17.01, -25.97, -23.25, -21.77, -20.45, 8580.63, -26.84, -23.49, 0.000, 0.000, 0.000, 11:37:53.072, 1560760673072
184, -16.96, -25.57, -23.18, -21.64, -20.30, 8516.89, -26.80, -23.40, 0.000, 0.000, 0.000, 11:37:53.072, 1560760673072
185, -16.94, -25.46, -23.13, -21.48, -20.43, 8531.26, -26.96, -23.38, 0.000, 0.000, 0.000, 11:37:53.072, 1560760673072
186, -16.99, -25.19, -23.31, -21.35, -20.52, 8584.43, -26.91, -23.29, 0.000, 0.000, 0.000, 11:37:53.072, 1560760673072
187, -16.88, -25.19, -23.34, -21.73, -20.38, 8584.70, -26.60, -23.22, 0.008, 0.054, -1.038, 11:37:53.072, 1560760673072
188, -16.63, -25.26, -23.18, -21.46, -20.59, 8590.40, -26.69, -23.31, 0.000, 0.000, 0.000, 11:37:53.072, 1560760673072
189, -16.99, -25.19, -23.38, -21.14, -20.61, 8620.87, -26.98, -23.49, 0.000, 0.000, 0.000, 11:37:53.072, 1560760673072
190, -17.01, -25.21, -23.07, -21.48, -20.59, 8604.15, -26.96, -23.40, 0.000, 0.000, 0.000, 11:37:53.072, 1560760673072
191, -16.90, -25.50, -23.38, -21.50, -20.54, 8585.84, -26.82, -23.27, 0.000, 0.000, 0.000, 11:37:53.073, 1560760673073
192, -17.14, -25.66, -23.63, -21.44, -20.54, 8567.51, -26.91, -23.51, 0.000, 0.000, 0.000, 11:37:53.073, 1560760673073
193, -16.92, -25.37, -23.45, -21.70, -20.56, 8557.99, -26.91, -23.47, 0.000, 0.000, 0.000, 11:37:53.073, 1560760673073
194, -16.96, -25.39, -23.18, -21.46, -20.45, 8560.00, -27.02, -23.58, 0.000, 0.000, 0.000, 11:37:53.073, 1560760673073
195, -16.88, -25.44, -23.22, -21.59, -20.41, 8573.41, -26.67, -23.63, 0.000, 0.000, 0.000, 11:37:53.073, 1560760673073
196, -16.76, -25.30, -23.34, -21.66, -20.30, 8613.29, -26.51, -23.60, 0.008, 0.064, -1.042, 11:37:53.073, 1560760673073
197, -16.88, -25.30, -23.11, -21.32, -20.45, 8596.77, -26.84, -23.60, 0.000, 0.000, 0.000, 11:37:53.073, 1560760673073
198, -16.70, -25.17, -22.93, -21.44, -20.43, 8562.98, -26.73, -23.56, 0.000, 0.000, 0.000, 11:37:53.073, 1560760673073
199, -16.67, -25.28, -23.34, -21.50, -20.07, 8590.24, -26.51, -23.34, 0.000, 0.000, 0.000, 11:37:53.073, 1560760673073
200, -16.74, -25.35, -23.25, -21.44, -19.96, 8610.47, -26.73, -23.22, 0.000, 0.000, 0.000, 11:37:53.074, 1560760673074
201, -16.96, -25.30, -23.38, -21.35, -20.32, 8580.28, -26.87, -23.22, 0.000, 0.000, 0.000, 11:37:53.074, 1560760673074
202, -16.92, -25.24, -23.16, -21.30, -20.36, 8575.51, -26.84, -23.49, 0.000, 0.000, 0.000, 11:37:53.074, 1560760673074
203, -16.81, -25.24, -23.22, -21.50, -20.45, 8594.45, -27.11, -23.38, 0.000, 0.000, 0.000, 11:37:53.074, 1560760673074
204, -16.83, -25.39, -23.13, -21.59, -20.70, 8540.18, -27.14, -23.65, 0.000, 0.000, 0.000, 11:37:53.074, 1560760673074
205, -16.79, -25.44, -23.04, -21.66, -20.72, 8535.44, -27.11, -23.72, 0.000, 0.000, 0.000, 11:37:53.074, 1560760673074
206, -16.63, -25.30, -23.16, -21.84, -20.43, 8592.95, -26.80, -23.58, 0.008, 0.062, -1.030, 11:37:53.074, 1560760673074
207, -16.90, -25.50, -23.16, -21.57, -20.47, 8611.70, -26.91, -23.54, 0.000, 0.000, 0.000, 11:37:53.074, 1560760673074
208, -16.92, -25.68, -23.18, -21.46, -20.47, 8581.10, -27.07, -23.34, 0.000, 0.000, 0.000, 11:37:53.075, 1560760673075
209, -16.92, -25.53, -23.29, -21.44, -20.45, 8576.90, -26.93, -23.16, 0.000, 0.000, 0.000, 11:37:53.075, 1560760673075
210, -16.85, -25.39, -23.27, -21.39, -20.56, 8576.39, -26.76, -23.56, 0.000, 0.000, 0.000, 11:37:53.075, 1560760673075
211, -16.56, -25.39, -23.16, -21.37, -20.68, 8583.87, -26.73, -23.56, 0.000, 0.000, 0.000, 11:37:53.075, 1560760673075
212, -16.72, -25.46, -23.02, -21.55, -20.59, 8600.64, -26.76, -23.38, 0.000, 0.000, 0.000, 11:37:53.076, 1560760673076
213, -16.79, -25.37, -23.04, -21.70, -20.43, 8623.62, -26.93, -23.40, 0.000, 0.000, 0.000, 11:37:53.076, 1560760673076
214, -17.01, -25.50, -23.16, -21.48, -20.32, 8588.99, -26.87, -23.34, 0.000, 0.000, 0.000, 11:37:53.076, 1560760673076
215, -16.85, -25.41, -23.18, -21.39, -20.47, 8537.92, -26.87, -23.25, 0.000, 0.000, 0.000, 11:37:53.076, 1560760673076
216, -16.94, -25.37, -23.29, -21.44, -20.30, 8538.50, -26.91, -23.36, 0.006, 0.058, -1.032, 11:37:53.076, 1560760673076
217, -16.88, -25.48, -23.34, -21.50, -20.25, 8562.46, -26.93, -23.27, 0.000, 0.000, 0.000, 11:37:53.076, 1560760673076
218, -16.56, -25.66, -23.18, -21.73, -20.50, 8568.83, -26.89, -23.45, 0.000, 0.000, 0.000, 11:37:53.076, 1560760673076
219, -16.65, -25.53, -23.18, -21.46, -20.41, 8557.66, -26.69, -23.31, 0.000, 0.000, 0.000, 11:37:53.076, 1560760673076
220, -16.85, -25.37, -23.18, -21.17, -20.32, 8570.37, -26.84, -23.47, 0.000, 0.000, 0.000, 11:37:53.076, 1560760673076
221, -16.90, -25.28, -23.42, -21.50, -20.36, 8563.09, -26.82, -23.49, 0.000, 0.000, 0.000, 11:37:53.077, 1560760673077
222, -16.85, -25.57, -23.29, -21.86, -20.61, 8556.78, -26.80, -23.31, 0.000, 0.000, 0.000, 11:37:53.077, 1560760673077
223, -16.96, -25.39, -23.27, -21.86, -20.72, 8572.09, -26.91, -23.34, 0.000, 0.000, 0.000, 11:37:53.077, 1560760673077
224, -16.81, -25.39, -23.34, -21.70, -20.61, 8586.47, -26.80, -23.40, 0.000, 0.000, 0.000, 11:37:53.538, 1560760673538
225, -16.67, -25.55, -23.29, -21.37, -20.50, 8562.08, -26.84, -23.38, 0.000, 0.000, 0.000, 11:37:53.538, 1560760673538
226, -16.81, -25.41, -23.34, -21.52, -20.43, 8575.02, -26.82, -23.38, 0.002, 0.058, -1.036, 11:37:53.538, 1560760673538
227, -16.90, -25.39, -23.40, -21.86, -20.61, 8577.88, -26.80, -23.31, 0.000, 0.000, 0.000, 11:37:53.538, 1560760673538
228, -16.85, -25.12, -23.22, -21.68, -20.83, 8568.03, -26.87, -23.18, 0.000, 0.000, 0.000, 11:37:53.538, 1560760673538
229, -16.79, -25.12, -23.34, -21.46, -20.61, 8517.49, -26.87, -23.34, 0.000, 0.000, 0.000, 11:37:53.538, 1560760673538
230, -16.90, -25.30, -22.93, -21.46, -20.50, 8514.58, -26.76, -23.49, 0.000, 0.000, 0.000, 11:37:53.538, 1560760673538
231, -16.88, -25.30, -23.22, -21.59, -20.38, 8578.89, -26.80, -23.51, 0.000, 0.000, 0.000, 11:37:53.539, 1560760673539
232, -16.47, -25.57, -23.40, -21.73, -20.61, 8592.05, -27.02, -23.60, 0.000, 0.000, 0.000, 11:37:53.539, 1560760673539
233, -16.76, -25.62, -23.18, -21.77, -20.68, 8561.46, -27.09, -23.63, 0.000, 0.000, 0.000, 11:37:53.539, 1560760673539
234, -16.70, -25.50, -23.27, -21.35, -20.50, 8567.36, -26.96, -23.51, 0.000, 0.000, 0.000, 11:37:53.539, 1560760673539
235, -16.74, -25.46, -23.31, -21.46, -20.41, 8542.25, -26.80, -23.29, 0.000, 0.000, 0.000, 11:37:53.539, 1560760673539
236, -16.79, -25.39, -23.16, -21.75, -20.59, 8572.01, -26.84, -23.11, 0.000, 0.052, -1.034, 11:37:53.539, 1560760673539
237, -16.92, -25.44, -23.22, -21.79, -20.65, 8574.49, -27.11, -23.22, 0.000, 0.000, 0.000, 11:37:53.539, 1560760673539
238, -17.08, -25.48, -23.18, -21.73, -20.61, 8546.77, -26.64, -23.63, 0.000, 0.000, 0.000, 11:37:53.539, 1560760673539
239, -16.79, -25.46, -23.31, -21.55, -20.38, 8546.41, -26.87, -23.65, 0.000, 0.000, 0.000, 11:37:53.539, 1560760673539
240, -16.56, -25.39, -23.54, -21.37, -20.34, 8575.87, -27.16, -23.49, 0.000, 0.000, 0.000, 11:37:53.539, 1560760673539
241, -17.03, -25.35, -23.07, -21.66, -20.25, 8553.52, -27.07, -23.38, 0.000, 0.000, 0.000, 11:37:53.539, 1560760673539
242, -17.01, -25.30, -22.91, -21.32, -20.21, 8567.85, -26.67, -23.65, 0.000, 0.000, 0.000, 11:37:53.539, 1560760673539
243, -16.92, -25.28, -23.16, -21.50, -20.32, 8548.29, -26.73, -23.60, 0.000, 0.000, 0.000, 11:37:53.539, 1560760673539
244, -16.96, -25.17, -23.25, -21.68, -20.47, 8544.78, -26.80, -23.47, 0.000, 0.000, 0.000, 11:37:53.539, 1560760673539
245, -16.90, -25.24, -23.31, -21.44, -20.56, 8552.29, -26.89, -23.42, 0.000, 0.000, 0.000, 11:37:53.539, 1560760673539
246, -16.85, -25.19, -23.29, -21.39, -20.36, 8575.16, -26.82, -23.45, 0.004, 0.050, -1.032, 11:37:53.540, 1560760673540
247, -16.94, -25.39, -23.49, -21.84, -20.38, 8571.00, -26.91, -23.67, 0.000, 0.000, 0.000, 11:37:53.540, 1560760673540
248, -16.90, -25.53, -23.34, -21.97, -20.72, 8594.00, -26.76, -23.67, 0.000, 0.000, 0.000, 11:37:53.540, 1560760673540
249, -17.03, -25.50, -23.47, -21.61, -20.59, 8560.41, -26.91, -23.51, 0.000, 0.000, 0.000, 11:37:53.540, 1560760673540
250, -16.96, -25.41, -23.40, -21.48, -20.41, 8527.12, -27.02, -23.34, 0.000, 0.000, 0.000, 11:37:53.540, 1560760673540
251, -16.96, -25.24, -23.40, -21.59, -20.38, 8561.37, -26.98, -23.29, 0.000, 0.000, 0.000, 11:37:53.540, 1560760673540
252, -16.96, -25.28, -23.40, -21.66, -20.50, 8564.18, -26.93, -23.51, 0.000, 0.000, 0.000, 11:37:53.540, 1560760673540
253, -16.83, -25.28, -23.11, -21.55, -20.34, 8583.09, -26.84, -23.51, 0.000, 0.000, 0.000, 11:37:53.540, 1560760673540
254, -16.76, -25.46, -23.18, -21.66, -20.56, 8586.11, -26.93, -23.20, 0.000, 0.000, 0.000, 11:37:53.540, 1560760673540
255, -16.74, -25.39, -23.20, -21.84, -20.54, 8557.68, -26.87, -23.29, 0.000, 0.000, 0.000, 11:37:53.540, 1560760673540
0, -16.90, -25.17, -23.31, -21.66, -20.61, 8559.60, -26.67, -23.47, 0.004, 0.054, -1.032, 11:37:53.540, 1560760673540
1, -16.99, -25.24, -23.20, -21.70, -20.68, 8587.94, -26.80, -23.36, 0.000, 0.000, 0.000, 11:37:53.540, 1560760673540
2, -16.70, -25.35, -22.84, -21.59, -20.68, 8563.91, -26.84, -23.45, 0.000, 0.000, 0.000, 11:37:53.540, 1560760673540
3, -16.67, -25.12, -23.02, -21.50, -20.65, 8572.54, -26.76, -23.51, 0.000, 0.000, 0.000, 11:37:53.540, 1560760673540
4, -16.70, -25.19, -23.04, -21.50, -20.25, 8540.96, -26.73, -23.49, 0.000, 0.000, 0.000, 11:37:53.540, 1560760673540
5, -16.85, -25.24, -23.04, -21.50, -20.09, 8540.56, -26.89, -23.47, 0.000, 0.000, 0.000, 11:37:53.540, 1560760673540
6, -16.92, -25.41, -23.16, -21.46, -20.30, 8561.08, -27.00, -23.36, 0.000, 0.000, 0.000, 11:37:53.541, 1560760673541
7, -16.81, -25.53, -23.25, -21.39, -20.43, 8584.37, -26.96, -23.34, 0.000, 0.000, 0.000, 11:37:53.541, 1560760673541
8, -16.72, -25.53, -23.09, -21.28, -20.65, 8564.54, -26.73, -23.27, 0.000, 0.000, 0.000, 11:37:53.541, 1560760673541
9, -16.58, -25.30, -23.40, -21.39, -20.74, 8579.34, -26.87, -23.34, 0.000, 0.000, 0.000, 11:37:53.541, 1560760673541
10, -16.81, -25.30, -23.25, -21.55, -20.52, 8609.24, -27.07, -23.40, 0.004, 0.052, -1.032, 11:37:53.541, 1560760673541
11, -16.88, -25.37, -23.18, -21.73, -20.32, 8575.16, -26.98, -23.47, 0.000, 0.000, 0.000, 11:37:53.541, 1560760673541
12, -16.94, -25.39, -23.34, -21.77, -20.61, 8594.49, -26.98, -23.51, 0.000, 0.000, 0.000, 11:37:53.541, 1560760673541
13, -17.08, -25.53, -23.42, -21.66, -20.54, 8562.64, -27.02, -23.56, 0.000, 0.000, 0.000, 11:37:53.541, 1560760673541
14, -16.90, -25.37, -23.29, -21.39, -20.76, 8565.10, -27.07, -23.20, 0.000, 0.000, 0.000, 11:37:53.541, 1560760673541
15, -16.94, -25.12, -23.22, -21.44, -20.74, 8574.55, -26.76, -23.29, 0.000, 0.000, 0.000, 11:37:53.541, 1560760673541
16, -16.79, -25.30, -23.29, -21.46, -20.59, 8580.01, -26.78, -23.31, 0.000, 0.000, 0.000, 11:37:53.542, 1560760673542
17, -16.79, -25.21, -23.22, -21.55, -20.34, 8570.51, -26.76, -23.27, 0.000, 0.000, 0.000, 11:37:53.542, 1560760673542
18, -16.76, -25.17, -23.29, -21.55, -20.38, 8563.29, -26.46, -23.38, 0.000, 0.000, 0.000, 11:37:53.542, 1560760673542
19, -16.79, -25.24, -23.18, -21.84, -20.47, 8548.00, -26.64, -23.22, 0.000, 0.000, 0.000, 11:37:53.542, 1560760673542
20, -16.67, -25.30, -23.22, -21.70, -20.36, 8534.92, -26.87, -23.42, 0.004, 0.054, -1.036, 11:37:53.542, 1560760673542
21, -16.63, -25.57, -23.42, -21.73, -20.36, 8581.57, -26.76, -23.31, 0.000, 0.000, 0.000, 11:37:53.542, 1560760673542
22, -16.85, -25.59, -23.11, -21.66, -20.52, 8598.76, -26.87, -23.38, 0.000, 0.000, 0.000, 11:37:53.542, 1560760673542
23, -16.92, -25.30, -23.11, -21.59, -20.21, 8599.57, -26.93, -23.47, 0.000, 0.000, 0.000, 11:37:53.542, 1560760673542
24, -16.56, -25.44, -23.54, -21.50, -20.23, 8594.00, -26.84, -23.25, 0.000, 0.000, 0.000, 11:37:53.542, 1560760673542
25, -16.58, -25.57, -23.27, -21.59, -20.38, 8577.21, -26.93, -23.20, 0.000, 0.000, 0.000, 11:37:53.542, 1560760673542
26, -16.67, -25.28, -23.29, -21.39, -20.59, 8595.63, -26.96, -23.22, 0.000, 0.000, 0.000, 11:37:53.542, 1560760673542
27, -16.72, -25.35, -23.36, -21.55, -20.43, 8613.04, -26.73, -23.34, 0.000, 0.000, 0.000, 11:37:53.544, 1560760673544
28, -17.08, -25.39, -23.25, -21.61, -20.47, 8570.37, -26.76, -23.16, 0.000, 0.000, 0.000, 11:37:53.544, 1560760673544
29, -16.90, -25.12, -23.11, -21.79, -20.45, 8540.71, -27.07, -23.25, 0.000, 0.000, 0.000, 11:37:53.545, 1560760673545
30, -16.76, -25.46, -22.84, -21.79, -20.47, 8570.91, -27.09, -23.29, 0.008, 0.058, -1.030, 11:37:53.545, 1560760673545
31, -16.81, -25.41, -23.04, -21.52, -20.61, 8606.72, -26.91, -23.40, 0.000, 0.000, 0.000, 11:37:53.545, 1560760673545
32, -16.88, -25.26, -23.11, -21.59, -20.54, 8568.23, -26.76, -23.27, 0.000, 0.000, 0.000, 11:37:53.545, 1560760673545
33, -16.50, -25.46, -23.11, -21.41, -20.59, 8560.41, -26.98, -23.45, 0.000, 0.000, 0.000, 11:37:53.545, 1560760673545
34, -16.38, -25.50, -23.38, -21.59, -20.43, 8545.61, -26.87, -23.63, 0.000, 0.000, 0.000, 11:37:53.545, 1560760673545
35, -16.52, -25.30, -23.07, -21.59, -20.36, 8552.29, -26.76, -23.51, 0.000, 0.000, 0.000, 11:37:53.545, 1560760673545
36, -16.76, -25.35, -23.04, -21.84, -20.23, 8604.64, -26.87, -23.58, 0.000, 0.000, 0.000, 11:37:53.545, 1560760673545
37, -16.74, -25.26, -23.22, -21.64, -20.16, 8606.54, -26.96, -23.49, 0.000, 0.000, 0.000, 11:37:53.545, 1560760673545
38, -16.70, -25.32, -23.18, -21.70, -20.36, 8582.89, -26.67, -23.49, 0.000, 0.000, 0.000, 11:37:53.545, 1560760673545
39, -16.83, -25.28, -23.07, -21.59, -20.50, 8566.42, -26.60, -23.38, 0.000, 0.000, 0.000, 11:37:53.546, 1560760673546
40, -16.96, -25.39, -23.38, -21.39, -20.65, 8582.89, -26.84, -23.31, 0.008, 0.054, -1.034, 11:37:53.546, 1560760673546
41, -16.63, -25.55, -23.40, -21.44, -20.50, 8569.90, -26.91, -23.34, 0.000, 0.000, 0.000, 11:37:53.546, 1560760673546
42, -16.85, -25.46, -23.36, -21.55, -20.43, 8549.72, -26.80, -23.45, 0.000, 0.000, 0.000, 11:37:53.546, 1560760673546
43, -17.08, -25.53, -23.29, -21.59, -20.56, 8554.55, -26.80, -23.36, 0.000, 0.000, 0.000, 11:37:53.546, 1560760673546
44, -16.92, -25.57, -23.31, -21.61, -20.61, 8577.30, -26.80, -23.56, 0.000, 0.000, 0.000, 11:37:53.546, 1560760673546
45, -16.74, -25.32, -23.34, -21.61, -20.63, 8559.85, -26.96, -23.34, 0.000, 0.000, 0.000, 11:37:53.546, 1560760673546
46, -16.88, -25.28, -23.38, -21.26, -20.50, 8563.38, -26.96, -23.20, 0.000, 0.000, 0.000, 11:37:53.546, 1560760673546
47, -17.01, -25.35, -23.27, -21.44, -20.59, 8562.48, -27.05, -23.27, 0.000, 0.000, 0.000, 11:37:53.546, 1560760673546
48, -16.70, -25.19, -23.38, -21.48, -20.65, 8530.30, -26.98, -23.34, 0.000, 0.000, 0.000, 11:37:53.546, 1560760673546
49, -16.67, -25.19, -23.31, -21.41, -20.65, 8572.23, -26.98, -23.38, 0.000, 0.000, 0.000, 11:37:53.546, 1560760673546
50, -16.58, -25.30, -23.20, -21.30, -20.59, 8587.43, -26.91, -23.34, 0.006, 0.056, -1.028, 11:37:53.546, 1560760673546
51, -16.76, -25.50, -23.36, -21.59, -20.56, 8583.05, -26.73, -23.29, 0.000, 0.000, 0.000, 11:37:53.546, 1560760673546
52, -17.03, -25.57, -23.18, -21.61, -20.76, 8572.81, -26.84, -23.38, 0.000, 0.000, 0.000, 11:37:53.546, 1560760673546
53, -16.83, -25.46, -23.27, -21.68, -20.61, 8569.55, -26.58, -23.49, 0.000, 0.000, 0.000, 11:37:53.546, 1560760673546
54, -16.58, -25.30, -23.34, -21.86, -20.36, 8582.42, -26.80, -23.22, 0.000, 0.000, 0.000, 11:37:53.546, 1560760673546
55, -16.81, -25.28, -23.40, -21.66, -20.32, 8573.21, -26.96, -23.22, 0.000, 0.000, 0.000, 11:37:53.547, 1560760673547
56, -16.99, -25.24, -23.38, -21.77, -20.70, 8559.85, -26.76, -23.27, 0.000, 0.000, 0.000, 11:37:53.547, 1560760673547
57, -16.96, -25.39, -23.49, -21.64, -20.59, 8554.77, -26.84, -23.40, 0.000, 0.000, 0.000, 11:37:53.547, 1560760673547
58, -16.88, -25.30, -23.45, -21.59, -20.76, 8532.73, -26.98, -23.34, 0.000, 0.000, 0.000, 11:37:53.547, 1560760673547
59, -16.76, -25.10, -23.07, -21.64, -20.79, 8530.83, -27.02, -23.34, 0.012, 0.052, -1.028, 11:37:53.547, 1560760673547
60, -16.79, -25.19, -23.27, -21.77, -20.72, 8543.69, -27.09, -23.34, 0.000, 0.000, 0.000, 11:37:53.547, 1560760673547
61, -16.67, -25.57, -23.29, -21.66, -20.88, 8557.12, -27.07, -23.42, 0.000, 0.000, 0.000, 11:37:53.547, 1560760673547
62, -16.67, -25.37, -23.29, -21.66, -20.68, 8557.79, -27.09, -23.51, 0.000, 0.000, 0.000, 11:37:53.547, 1560760673547
63, -16.74, -25.46, -23.40, -21.52, -20.68, 8569.39, -27.02, -23.31, 0.000, 0.000, 0.000, 11:37:53.547, 1560760673547
64, -16.67, -25.46, -23.36, -21.37, -20.72, 8560.61, -26.84, -23.34, 0.000, 0.000, 0.000, 11:37:53.547, 1560760673547
65, -16.63, -25.24, -23.04, -21.41, -20.76, 8577.50, -26.84, -23.49, 0.000, 0.000, 0.000, 11:37:53.547, 1560760673547
66, -16.70, -25.28, -23.18, -21.59, -20.65, 8584.25, -26.76, -23.40, 0.000, 0.000, 0.000, 11:37:53.547, 1560760673547
67, -16.90, -25.35, -23.07, -21.52, -20.43, 8601.42, -26.91, -23.38, 0.000, 0.000, 0.000, 11:37:53.547, 1560760673547
68, -16.90, -25.50, -23.13, -21.66, -20.41, 8562.19, -27.18, -23.58, 0.000, 0.000, 0.000, 11:37:53.547, 1560760673547
69, -17.12, -25.35, -23.18, -21.61, -20.54, 8523.19, -27.09, -23.65, 0.008, 0.054, -1.034, 11:37:53.547, 1560760673547
70, -17.08, -25.19, -23.20, -21.57, -20.50, 8546.70, -26.82, -23.29, 0.000, 0.000, 0.000, 11:37:53.547, 1560760673547
71, -16.92, -25.06, -23.31, -21.59, -20.30, 8574.67, -26.89, -23.18, 0.000, 0.000, 0.000, 11:37:53.547, 1560760673547
72, -16.85, -25.24, -23.49, -21.59, -20.34, 8573.64, -26.76, -23.34, 0.000, 0.000, 0.000, 11:37:53.547, 1560760673547
73, -16.83, -25.39, -23.27, -21.44, -20.59, 8546.61, -26.76, -23.45, 0.000, 0.000, 0.000, 11:37:53.548, 1560760673548
74, -16.94, -25.28, -23.22, -21.50, -20.54, 8546.95, -26.71, -23.40, 0.000, 0.000, 0.000, 11:37:53.548, 1560760673548
75, -17.01, -25.17, -23.09, -21.66, -20.56, 8564.05, -26.73, -23.38, 0.000, 0.000, 0.000, 11:37:53.548, 1560760673548
76, -16.70, -25.48, -23.38, -21.82, -20.50, 8576.57, -27.07, -23.38, 0.000, 0.000, 0.000, 11:37:53.548, 1560760673548
77, -16.76, -25.44, -23.29, -21.75, -20.38, 8558.80, -26.93, -23.22, 0.000, 0.000, 0.000, 11:37:53.548, 1560760673548
78, -16.58, -25.55, -23.29, -21.44, -20.38, 8551.02, -26.73, -23.42, 0.000, 0.000, 0.000, 11:37:53.548, 1560760673548
79, -16.56, -25.48, -23.27, -21.73, -20.34, 8552.34, -26.93, -23.60, 0.008, 0.052, -1.028, 11:37:53.548, 1560760673548
80, -16.76, -25.26, -23.13, -21.59, -20.45, 8567.07, -26.71, -23.40, 0.000, 0.000, 0.000, 11:37:53.548, 1560760673548
81, -16.79, -25.41, -23.40, -21.37, -20.59, 8554.33, -26.84, -23.27, 0.000, 0.000, 0.000, 11:37:53.548, 1560760673548
82, -16.96, -25.24, -23.27, -21.28, -20.68, 8564.50, -26.84, -23.34, 0.000, 0.000, 0.000, 11:37:53.548, 1560760673548
83, -16.76, -25.24, -23.40, -21.39, -20.54, 8527.88, -26.80, -23.40, 0.000, 0.000, 0.000, 11:37:53.548, 1560760673548
84, -16.70, -25.24, -23.22, -21.68, -20.50, 8561.08, -26.82, -23.51, 0.000, 0.000, 0.000, 11:37:53.548, 1560760673548
85, -16.74, -25.28, -23.31, -21.77, -20.54, 8556.09, -26.80, -23.67, 0.000, 0.000, 0.000, 11:37:53.548, 1560760673548
86, -16.70, -25.35, -23.27, -21.66, -20.38, 8580.01, -26.98, -23.54, 0.000, 0.000, 0.000, 11:37:53.548, 1560760673548
87, -16.81, -25.24, -23.22, -21.68, -20.59, 8575.51, -27.00, -23.40, 0.000, 0.000, 0.000, 11:37:53.548, 1560760673548
88, -17.08, -25.39, -23.40, -21.64, -20.72, 8549.30, -26.67, -23.22, 0.000, 0.000, 0.000, 11:37:53.548, 1560760673548
89, -17.19, -25.59, -23.29, -21.59, -20.59, 8529.16, -27.00, -23.40, 0.002, 0.048, -1.030, 11:37:54.021, 1560760674021
90, -16.92, -25.24, -23.18, -21.59, -20.47, 8540.58, -27.07, -23.29, 0.000, 0.000, 0.000, 11:37:54.021, 1560760674021
91, -16.61, -25.30, -23.34, -21.70, -20.54, 8559.49, -26.91, -23.42, 0.000, 0.000, 0.000, 11:37:54.021, 1560760674021
92, -16.70, -25.39, -23.38, -21.57, -20.65, 8557.37, -26.91, -23.25, 0.000, 0.000, 0.000, 11:37:54.021, 1560760674021
93, -16.81, -25.39, -23.56, -21.79, -20.70, 8540.09, -26.76, -23.45, 0.000, 0.000, 0.000, 11:37:54.022, 1560760674022
94, -16.88, -25.48, -23.56, -21.70, -20.52, 8516.55, -26.67, -23.38, 0.000, 0.000, 0.000, 11:37:54.022, 1560760674022
95, -16.85, -25.44, -23.34, -21.70, -20.54, 8528.91, -26.91, -23.29, 0.000, 0.000, 0.000, 11:37:54.022, 1560760674022
96, -16.70, -25.28, -23.31, -21.68, -20.52, 8566.95, -26.98, -23.22, 0.000, 0.000, 0.000, 11:37:54.022, 1560760674022
97, -16.54, -25.35, -23.27, -21.37, -20.70, 8583.72, -26.87, -23.40, 0.000, 0.000, 0.000, 11:37:54.022, 1560760674022
98, -16.67, -25.28, -23.27, -21.41, -20.41, 8554.57, -26.62, -23.56, 0.000, 0.000, 0.000, 11:37:54.022, 1560760674022
99, -16.67, -25.08, -23.27, -21.75, -20.54, 8545.63, -26.73, -23.38, 0.006, 0.048, -1.036, 11:37:54.022, 1560760674022
100, -16.85, -25.39, -23.13, -21.66, -20.54, 8540.89, -26.73, -23.49, 0.000, 0.000, 0.000, 11:37:54.022, 1560760674022
101, -17.03, -25.19, -23.36, -21.70, -20.65, 8564.54, -26.67, -23.42, 0.000, 0.000, 0.000, 11:37:54.022, 1560760674022
102, -16.90, -25.28, -23.27, -21.55, -20.27, 8599.14, -26.51, -23.34, 0.000, 0.000, 0.000, 11:37:54.022, 1560760674022
103, -16.74, -25.46, -23.04, -21.46, -20.63, 8554.77, -26.80, -23.27, 0.000, 0.000, 0.000, 11:37:54.022, 1560760674022
104, -16.74, -25.59, -23.07, -21.32, -20.74, 8550.79, -26.67, -23.27, 0.000, 0.000, 0.000, 11:37:54.022, 1560760674022
105, -17.12, -25.64, -23.22, -21.46, -20.61, 8563.53, -26.80, -23.49, 0.000, 0.000, 0.000, 11:37:54.023, 1560760674023
106, -17.12, -25.17, -23.09, -21.57, -20.68, 8566.37, -26.73, -23.56, 0.000, 0.000, 0.000, 11:37:54.023, 1560760674023
107, -16.81, -25.39, -23.42, -21.70, -20.47, 8586.82, -27.11, -23.54, 0.000, 0.000, 0.000, 11:37:54.023, 1560760674023
108, -16.74, -25.28, -23.47, -21.70, -20.23, 8538.54, -27.07, -23.47, 0.000, 0.000, 0.000, 11:37:54.023, 1560760674023
109, -16.81, -25.46, -23.16, -21.39, -20.52, 8548.49, -26.71, -23.40, 0.012, 0.056, -1.030, 11:37:54.023, 1560760674023
110, -16.52, -25.50, -23.22, -21.37, -20.68, 8535.37, -26.73, -23.42, 0.000, 0.000, 0.000, 11:37:54.023, 1560760674023
111, -16.70, -25.39, -23.38, -21.73, -20.43, 8572.83, -26.91, -23.51, 0.000, 0.000, 0.000, 11:37:54.023, 1560760674023
112, -16.65, -25.62, -23.31, -21.75, -20.27, 8583.05, -27.11, -23.45, 0.000, 0.000, 0.000, 11:37:54.023, 1560760674023
113, -16.83, -25.30, -23.18, -21.77, -20.43, 8586.62, -27.07, -23.20, 0.000, 0.000, 0.000, 11:37:54.023, 1560760674023
114, -16.88, -25.28, -23.27, -21.61, -20.65, 8542.79, -26.96, -23.27, 0.000, 0.000, 0.000, 11:37:54.023, 1560760674023
115, -16.81, -25.53, -23.36, -21.59, -20.52, 8558.48, -26.76, -23.34, 0.000, 0.000, 0.000, 11:37:54.024, 1560760674024
116, -16.81, -25.46, -23.38, -21.39, -20.61, 8571.00, -26.71, -23.45, 0.000, 0.000, 0.000, 11:37:54.024, 1560760674024
117, -16.70, -25.44, -23.29, -21.44, -20.50, 8545.23, -26.69, -23.25, 0.000, 0.000, 0.000, 11:37:54.024, 1560760674024
118, -16.67, -25.26, -23.29, -21.55, -20.50, 8547.17, -26.84, -23.20, 0.000, 0.000, 0.000, 11:37:54.024, 1560760674024
119, -16.52, -25.28, -23.36, -21.50, -20.61, 8557.99, -26.87, -23.38, 0.008, 0.054, -1.036, 11:37:54.024, 1560760674024
120, -16.52, -25.30, -23.36, -21.50, -20.54, 8564.32, -26.76, -23.34, 0.000, 0.000, 0.000, 11:37:54.024, 1560760674024
121, -16.61, -25.21, -23.16, -21.32, -20.81, 8622.83, -26.69, -23.49, 0.000, 0.000, 0.000, 11:37:54.024, 1560760674024
122, -16.52, -25.30, -23.07, -21.48, -20.70, 8604.57, -26.87, -23.49, 0.000, 0.000, 0.000, 11:37:54.024, 1560760674024
123, -16.94, -25.44, -23.18, -21.37, -20.38, 8547.73, -26.80, -23.22, 0.000, 0.000, 0.000, 11:37:54.025, 1560760674025
124, -16.67, -25.39, -23.29, -21.55, -20.27, 8561.10, -26.89, -23.22, 0.000, 0.000, 0.000, 11:37:54.025, 1560760674025
125, -16.92, -25.30, -23.45, -21.77, -20.54, 8560.90, -26.87, -23.22, 0.000, 0.000, 0.000, 11:37:54.025, 1560760674025
126, -16.88, -25.46, -23.40, -21.52, -20.63, 8538.70, -26.76, -23.34, 0.000, 0.000, 0.000, 11:37:54.025, 1560760674025
127, -16.70, -25.41, -23.54, -21.66, -20.88, 8525.47, -26.71, -23.49, 0.000, 0.000, 0.000, 11:37:54.025, 1560760674025
128, -16.90, -25.46, -23.27, -21.68, -20.54, 8511.28, -26.62, -23.45, 0.000, 0.000, 0.000, 11:37:54.025, 1560760674025
129, -17.21, -25.46, -23.04, -21.68, -20.36, 8537.90, -26.51, -23.60, 0.014, 0.060, -1.038, 11:37:54.026, 1560760674026
130, -17.03, -25.44, -23.22, -21.50, -20.47, 8570.42, -26.80, -23.25, 0.000, 0.000, 0.000, 11:37:54.026, 1560760674026
131, -16.74, -25.68, -23.34, -21.32, -20.38, 8562.44, -26.76, -23.42, 0.000, 0.000, 0.000, 11:37:54.026, 1560760674026
132, -16.67, -25.50, -23.18, -21.37, -20.25, 8596.46, -26.84, -23.54, 0.000, 0.000, 0.000, 11:37:54.026, 1560760674026
133, -16.76, -25.30, -23.04, -21.59, -20.07, 8563.80, -26.87, -23.38, 0.000, 0.000, 0.000, 11:37:54.026, 1560760674026
134, -16.85, -25.30, -23.20, -21.61, -20.16, 8518.43, -26.53, -23.34, 0.000, 0.000, 0.000, 11:37:54.026, 1560760674026
135, -16.90, -25.28, -23.40, -21.59, -20.52, 8542.23, -26.78, -23.29, 0.000, 0.000, 0.000, 11:37:54.026, 1560760674026
136, -17.12, -25.32, -23.45, -21.61, -20.54, 8551.53, -26.91, -23.38, 0.000, 0.000, 0.000, 11:37:54.026, 1560760674026
137, -17.14, -25.32, -23.22, -21.55, -20.61, 8568.56, -26.67, -23.27, 0.000, 0.000, 0.000, 11:37:54.026, 1560760674026
138, -16.94, -25.35, -23.40, -21.59, -20.63, 8563.71, -26.69, -23.45, 0.000, 0.000, 0.000, 11:37:54.026, 1560760674026
139, -16.58, -25.50, -23.31, -21.59, -20.43, 8555.82, -26.91, -23.38, 0.012, 0.056, -1.034, 11:37:54.026, 1560760674026
140, -16.72, -25.24, -23.25, -21.44, -20.52, 8575.98, -26.98, -23.49, 0.000, 0.000, 0.000, 11:37:54.026, 1560760674026
141, -16.81, -25.39, -23.22, -21.46, -20.70, 8585.15, -26.76, -23.40, 0.000, 0.000, 0.000, 11:37:54.026, 1560760674026
142, -16.79, -25.50, -23.20, -21.61, -20.61, 8573.97, -26.78, -23.34, 0.000, 0.000, 0.000, 11:37:54.026, 1560760674026
143, -16.96, -25.53, -23.22, -21.68, -20.54, 8558.62, -26.96, -23.42, 0.000, 0.000, 0.000, 11:37:54.027, 1560760674027
144, -16.85, -25.39, -23.38, -21.59, -20.47, 8522.81, -26.84, -23.34, 0.000, 0.000, 0.000, 11:37:54.027, 1560760674027
145, -16.70, -25.35, -23.29, -21.59, -20.47, 8536.38, -26.84, -23.40, 0.000, 0.000, 0.000, 11:37:54.027, 1560760674027
146, -16.67, -25.41, -23.07, -21.64, -20.59, 8579.99, -26.96, -23.47, 0.000, 0.000, 0.000, 11:37:54.027, 1560760674027
147, -16.79, -25.35, -23.09, -21.79, -20.50, 8593.49, -27.09, -23.54, 0.000, 0.000, 0.000, 11:37:54.027, 1560760674027
148, -16.52, -25.46, -23.27, -21.70, -20.63, 8569.23, -27.09, -23.29, 0.000, 0.000, 0.000, 11:37:54.027, 1560760674027
149, -16.81, -25.53, -23.27, -21.73, -20.54, 8590.22, -27.07, -23.07, 0.014, 0.050, -1.044, 11:37:54.027, 1560760674027
150, -16.94, -25.41, -23.18, -21.39, -20.50, 8541.85, -27.05, -23.11, 0.000, 0.000, 0.000, 11:37:54.027, 1560760674027
151, -16.85, -25.37, -23.40, -21.44, -20.50, 8530.68, -26.96, -23.36, 0.000, 0.000, 0.000, 11:37:54.027, 1560760674027
152, -16.74, -25.50, -23.25, -21.68, -20.72, 8546.37, -26.69, -23.29, 0.000, 0.000, 0.000, 11:37:54.027, 1560760674027
153, -16.85, -25.57, -23.22, -21.73, -20.54, 8558.62, -27.02, -23.22, 0.000, 0.000, 0.000, 11:37:54.027, 1560760674027
154, -16.81, -25.77, -23.13, -21.55, -20.25, 8544.89, -26.76, -23.31, 0.000, 0.000, 0.000, 11:37:54.027, 1560760674027
155, -16.74, -25.44, -23.20, -21.66, -20.38, 8538.90, -26.69, -23.34, 0.000, 0.000, 0.000, 11:37:54.027, 1560760674027
156, -16.79, -25.28, -23.16, -21.75, -20.56, 8566.15, -26.82, -23.38, 0.000, 0.000, 0.000, 11:37:54.027, 1560760674027
157, -16.83, -25.32, -23.13, -21.35, -20.65, 8599.36, -26.64, -23.54, 0.000, 0.000, 0.000, 11:37:54.027, 1560760674027
158, -16.92, -25.41, -23.27, -21.37, -20.76, 8589.95, -26.80, -23.34, 0.000, 0.000, 0.000, 11:37:54.027, 1560760674027
159, -16.79, -25.48, -23.27, -21.32, -20.76, 8575.22, -26.96, -23.54, 0.012, 0.052, -1.034, 11:37:54.027, 1560760674027
160, -16.92, -25.26, -23.20, -21.23, -20.38, 8540.91, -26.82, -23.56, 0.000, 0.000, 0.000, 11:37:54.028, 1560760674028
161, -16.85, -25.37, -23.34, -21.44, -20.56, 8580.86, -26.98, -23.49, 0.000, 0.000, 0.000, 11:37:54.028, 1560760674028
162, -16.79, -25.28, -23.25, -21.37, -20.76, 8567.96, -26.98, -23.45, 0.000, 0.000, 0.000, 11:37:54.028, 1560760674028
163, -16.65, -25.39, -23.11, -21.50, -20.41, 8556.83, -26.89, -23.38, 0.000, 0.000, 0.000, 11:37:54.028, 1560760674028
164, -16.67, -25.17, -23.27, -21.59, -20.47, 8586.98, -27.25, -23.25, 0.000, 0.000, 0.000, 11:37:54.028, 1560760674028
165, -16.79, -25.41, -23.18, -21.77, -20.61, 8573.46, -27.11, -23.18, 0.000, 0.000, 0.000, 11:37:54.028, 1560760674028
166, -16.74, -25.50, -23.29, -21.77, -20.50, 8583.61, -26.73, -23.27, 0.000, 0.000, 0.000, 11:37:54.028, 1560760674028
167, -16.90, -25.64, -23.16, -21.48, -20.54, 8567.40, -26.71, -23.38, 0.000, 0.000, 0.000, 11:37:54.028, 1560760674028
168, -16.94, -25.41, -22.98, -21.44, -20.65, 8549.32, -26.84, -23.27, 0.012, 0.054, -1.032, 11:37:54.028, 1560760674028
169, -16.96, -25.39, -23.04, -21.61, -20.50, 8536.80, -26.76, -23.49, 0.000, 0.000, 0.000, 11:37:54.028, 1560760674028
170, -16.74, -25.28, -23.29, -21.59, -20.54, 8574.00, -26.76, -23.31, 0.000, 0.000, 0.000, 11:37:54.028, 1560760674028
171, -16.88, -25.55, -23.45, -21.57, -20.45, 8573.12, -26.76, -23.29, 0.000, 0.000, 0.000, 11:37:54.028, 1560760674028
172, -16.94, -25.39, -23.38, -21.61, -20.50, 8582.58, -26.73, -23.45, 0.000, 0.000, 0.000, 11:37:54.028, 1560760674028
173, -16.90, -25.46, -23.11, -21.52, -20.50, 8585.82, -26.73, -23.45, 0.000, 0.000, 0.000, 11:37:54.029, 1560760674029
174, -16.96, -25.57, -23.22, -21.46, -20.68, 8536.78, -26.73, -23.54, 0.000, 0.000, 0.000, 11:37:54.029, 1560760674029
175, -16.74, -25.50, -23.47, -21.46, -20.61, 8540.06, -26.91, -23.42, 0.000, 0.000, 0.000, 11:37:54.029, 1560760674029
176, -16.67, -25.35, -23.13, -21.46, -20.59, 8543.22, -26.98, -23.42, 0.000, 0.000, 0.000, 11:37:54.029, 1560760674029
177, -16.85, -25.39, -22.93, -21.55, -20.54, 8543.44, -26.80, -23.63, 0.000, 0.000, 0.000, 11:37:54.029, 1560760674029
178, -16.85, -25.30, -23.11, -21.44, -20.16, 8558.93, -27.07, -23.40, 0.010, 0.058, -1.040, 11:37:54.029, 1560760674029
179, -16.90, -25.28, -23.07, -21.70, -20.70, 8548.42, -26.91, -23.25, 0.000, 0.000, 0.000, 11:37:54.029, 1560760674029
180, -16.83, -25.28, -23.07, -21.64, -20.70, 8539.95, -26.71, -23.34, 0.000, 0.000, 0.000, 11:37:54.029, 1560760674029
181, -16.88, -25.21, -23.22, -21.44, -20.32, 8563.38, -26.98, -23.45, 0.000, 0.000, 0.000, 11:37:54.029, 1560760674029
182, -17.01, -25.24, -23.40, -21.59, -20.36, 8576.19, -27.09, -23.49, 0.000, 0.000, 0.000, 11:37:54.029, 1560760674029
183, -17.01, -25.44, -23.09, -21.39, -20.83, 8589.98, -27.18, -23.40, 0.000, 0.000, 0.000, 11:37:54.029, 1560760674029
184, -16.85, -25.41, -23.02, -21.52, -20.52, 8577.21, -26.73, -23.20, 0.000, 0.000, 0.000, 11:37:54.029, 1560760674029
185, -16.74, -25.28, -23.27, -21.61, -20.27, 8591.92, -26.84, -23.36, 0.000, 0.000, 0.000, 11:37:54.029, 1560760674029
186, -16.65, -25.32, -23.31, -21.48, -20.32, 8566.40, -26.80, -23.27, 0.000, 0.000, 0.000, 11:37:54.029, 1560760674029
187, -16.72, -25.17, -23.20, -21.61, -20.47, 8566.95, -26.98, -23.40, 0.000, 0.000, 0.000, 11:37:54.030, 1560760674030
188, -16.99, -25.32, -23.20, -21.59, -20.50, 8587.67, -26.80, -23.49, 0.012, 0.050, -1.040, 11:37:54.030, 1560760674030
189, -16.83, -25.17, -23.25, -21.57, -20.36, 8559.69, -26.69, -23.56, 0.000, 0.000, 0.000, 11:37:54.030, 1560760674030
190, -16.70, -25.35, -23.25, -21.59, -20.45, 8534.30, -26.53, -23.45, 0.000, 0.000, 0.000, 11:37:54.030, 1560760674030
191, -16.61, -25.62, -23.18, -21.55, -20.61, 8573.97, -26.73, -23.51, 0.000, 0.000, 0.000, 11:37:54.030, 1560760674030
192, -16.81, -25.64, -23.16, -21.32, -20.38, 8568.56, -27.00, -23.45, 0.000, 0.000, 0.000, 11:37:54.031, 1560760674031
193, -16.94, -25.44, -22.93, -21.48, -20.30, 8529.18, -27.11, -23.29, 0.000, 0.000, 0.000, 11:37:54.031, 1560760674031
194, -16.74, -25.32, -23.11, -21.59, -20.32, 8521.78, -26.98, -23.65, 0.000, 0.000, 0.000, 11:37:54.031, 1560760674031
195, -16.50, -25.26, -23.42, -21.66, -20.36, 8521.71, -26.76, -23.51, 0.000, 0.000, 0.000, 11:37:54.031, 1560760674031
196, -16.65, -25.24, -23.16, -21.82, -20.50, 8547.51, -26.84, -23.38, 0.000, 0.000, 0.000, 11:37:54.031, 1560760674031
197, -16.58, -25.10, -23.02, -21.70, -20.45, 8546.10, -26.98, -23.63, 0.000, 0.000, 0.000, 11:37:54.031, 1560760674031
198, -16.67, -25.35, -23.18, -21.44, -20.47, 8545.99, -26.96, -23.76, 0.008, 0.050, -1.038, 11:37:54.031, 1560760674031
199, -16.83, -25.41, -23.27, -21.37, -20.25, 8538.70, -26.96, -23.47, 0.000, 0.000, 0.000, 11:37:54.031, 1560760674031
200, -16.70, -25.50, -23.31, -21.50, -20.25, 8537.61, -26.96, -23.36, 0.000, 0.000, 0.000, 11:37:54.031, 1560760674031
201, -16.79, -25.48, -23.20, -21.86, -20.61, 8575.96, -26.69, -23.40, 0.000, 0.000, 0.000, 11:37:54.031, 1560760674031
202, -16.90, -25.64, -23.29, -21.59, -20.47, 8574.98, -26.84, -23.22, 0.000, 0.000, 0.000, 11:37:54.031, 1560760674031
203, -17.03, -25.41, -23.40, -21.64, -20.36, 8530.43, -26.98, -23.34, 0.000, 0.000, 0.000, 11:37:54.031, 1560760674031
204, -16.81, -25.24, -23.25, -21.55, -20.43, 8541.99, -26.73, -23.29, 0.000, 0.000, 0.000, 11:37:54.031, 1560760674031
205, -16.79, -25.30, -23.22, -21.32, -20.43, 8574.13, -26.87, -23.22, 0.000, 0.000, 0.000, 11:37:54.031, 1560760674031
206, -16.81, -25.19, -23.22, -21.52, -20.36, 8610.47, -26.89, -23.16, 0.000, 0.000, 0.000, 11:37:54.031, 1560760674031
207, -16.67, -25.30, -23.36, -21.37, -20.59, 8609.09, -26.89, -23.09, 0.000, 0.000, 0.000, 11:37:54.031, 1560760674031
208, -16.90, -25.39, -23.36, -21.46, -20.83, 8583.20, -26.96, -23.36, 0.008, 0.050, -1.030, 11:37:54.031, 1560760674031
0, 4648.11, 13400.34, 19016.19, 15608.04, 14192.51, 8980.04, 16095.40, 13487.69, 0.004, 0.030, -0.514, 11:38:02.395, 1560760682395
1, 4654.01, 13403.80, 19012.48, 15621.30, 14206.77, 8973.46, 16108.81, 13493.14, 0.000, 0.000, 0.000, 11:38:02.395, 1560760682395
2, 4660.45, 13399.29, 19009.42, 15625.75, 14206.52, 8974.18, 16106.96, 13493.12, 0.000, 0.000, 0.000, 11:38:02.396, 1560760682396
3, 4658.06, 13400.79, 18999.41, 15628.43, 14202.03, 8983.34, 16105.88, 13495.25, 0.000, 0.000, 0.000, 11:38:02.396, 1560760682396
4, 4657.28, 13406.78, 19001.02, 15620.61, 14199.26, 8992.20, 16102.26, 13493.46, 0.000, 0.000, 0.000, 11:38:02.396, 1560760682396
5, 4658.64, 13402.28, 18999.96, 15613.94, 14194.56, 8979.81, 16097.19, 13480.83, 0.000, 0.000, 0.000, 11:38:02.396, 1560760682396
6, 4665.95, 13402.15, 19006.76, 15622.57, 14197.85, 8966.25, 16102.87, 13482.64, 0.000, 0.000, 0.000, 11:38:02.396, 1560760682396
7, 4667.07, 13408.19, 19010.96, 15631.92, 14205.52, 8965.26, 16112.21, 13489.14, 0.004, 0.040, -0.772, 11:38:02.396, 1560760682396
8, 4660.58, 13409.21, 19018.47, 15629.14, 14207.53, 8972.79, 16101.26, 13483.26, 0.000, 0.000, 0.000, 11:38:02.396, 1560760682396
9, 4660.72, 13409.06, 19013.27, 15626.84, 14208.42, 8982.54, 16096.70, 13483.09, 0.000, 0.000, 0.000, 11:38:02.397, 1560760682397
10, 4660.18, 13407.89, 19012.64, 15622.59, 14199.44, 8975.12, 16094.55, 13479.24, 0.000, 0.000, 0.000, 11:38:02.397, 1560760682397
11, 4655.02, 13406.11, 19025.92, 15619.00, 14194.27, 8955.85, 16095.00, 13475.67, 0.000, 0.000, 0.000, 11:38:02.397, 1560760682397
12, 4669.93, 13419.29, 19027.79, 15631.87, 14210.21, 8962.07, 16112.14, 13490.75, 0.000, 0.000, 0.000, 11:38:02.397, 1560760682397
13, 4673.03, 13421.13, 19017.06, 15633.44, 14214.99, 8986.25, 16110.62, 13491.83, 0.000, 0.000, 0.000, 11:38:02.397, 1560760682397
14, 4669.59, 13416.70, 19007.34, 15623.67, 14214.77, 8992.67, 16104.90, 13486.77, 0.000, 0.000, 0.000, 11:38:02.397, 1560760682397
15, 4659.87, 13414.04, 19001.42, 15617.72, 14203.17, 8979.92, 16099.54, 13477.83, 0.000, 0.000, 0.000, 11:38:02.397, 1560760682397
16, 4671.98, 13424.97, 19010.13, 15630.60, 14210.17, 8973.02, 16111.27, 13486.97, 0.002, 0.048, -0.902, 11:38:02.398, 1560760682398
17, 4691.12, 13437.78, 19023.48, 15639.92, 14221.72, 8981.56, 16123.43, 13499.78, 0.000, 0.000, 0.000, 11:38:02.398, 1560760682398
18, 4693.35, 13435.39, 19022.88, 15638.60, 14215.11, 8988.82, 16119.59, 13500.54, 0.000, 0.000, 0.000, 11:38:02.398, 1560760682398
19, 4686.89, 13430.34, 19022.18, 15633.06, 14218.93, 8988.60, 16114.09, 13497.17, 0.000, 0.000, 0.000, 11:38:02.398, 1560760682398
20, 4670.51, 13412.34, 19019.10, 15624.56, 14211.91, 8976.71, 16104.97, 13483.62, 0.000, 0.000, 0.000, 11:38:02.398, 1560760682398
21, 4679.72, 13420.48, 19038.34, 15639.65, 14218.91, 8973.44, 16119.70, 13487.33, 0.000, 0.000, 0.000, 11:38:02.398, 1560760682398
22, 4700.30, 13437.06, 19053.28, 15659.05, 14231.38, 8981.02, 16134.41, 13505.28, 0.000, 0.000, 0.000, 11:38:02.398, 1560760682398
23, 4698.96, 13433.64, 19032.71, 15646.44, 14221.88, 8980.46, 16118.67, 13500.18, 0.000, 0.000, 0.000, 11:38:02.399, 1560760682399
24, 4696.88, 13439.05, 19027.35, 15644.88, 14224.92, 8991.35, 16112.70, 13502.46, 0.000, 0.000, 0.000, 11:38:02.399, 1560760682399
25, 4682.13, 13433.49, 19022.03, 15644.57, 14217.94, 8981.04, 16114.56, 13497.30, 0.000, 0.000, 0.000, 11:38:02.399, 1560760682399
26, 4682.04, 13436.10, 19026.27, 15646.13, 14219.58, 8970.49, 16118.83, 13493.23, 0.006, 0.052, -0.966, 11:38:02.399, 1560760682399
27, 4691.99, 13442.96, 19040.06, 15649.75, 14225.21, 8968.93, 16123.21, 13497.97, 0.000, 0.000, 0.000, 11:38:02.400, 1560760682400
28, 4696.19, 13444.48, 19025.56, 15651.16, 14222.50, 8980.62, 16121.71, 13503.72, 0.000, 0.000, 0.000, 11:38:02.400, 1560760682400
29, 4695.19, 13444.15, 19024.26, 15648.50, 14225.25, 8988.73, 16117.24, 13506.58, 0.000, 0.000, 0.000, 11:38:02.400, 1560760682400
30, 4685.73, 13431.34, 19027.82, 15642.24, 14218.88, 8974.85, 16107.78, 13499.51, 0.000, 0.000, 0.000, 11:38:02.401, 1560760682401
31, 4689.46, 13440.04, 19042.79, 15649.51, 14221.92, 8965.49, 16114.69, 13495.13, 0.000, 0.000, 0.000, 11:38:02.401, 1560760682401
32, 4702.02, 13453.18, 19045.23, 15656.84, 14228.70, 8969.11, 16126.02, 13498.46, 0.000, 0.000, 0.000, 11:38:02.401, 1560760682401
33, 4703.46, 13449.96, 19042.10, 15654.27, 14231.56, 8976.93, 16122.25, 13499.04, 0.000, 0.000, 0.000, 11:38:02.401, 1560760682401
34, 4701.98, 13440.77, 19031.01, 15645.19, 14222.79, 8984.98, 16110.76, 13499.04, 0.000, 0.000, 0.000, 11:38:02.402, 1560760682402
35, 4689.87, 13434.74, 19022.09, 15637.26, 14216.13, 8974.87, 16105.77, 13492.07, 0.000, 0.000, 0.000, 11:38:02.402, 1560760682402
36, 4695.21, 13446.32, 19038.16, 15652.57, 14229.21, 8973.00, 16124.10, 13499.45, 0.008, 0.056, -1.000, 11:38:02.402, 1560760682402
37, 4693.46, 13442.92, 19041.63, 15651.47, 14230.53, 8967.92, 16121.96, 13496.79, 0.000, 0.000, 0.000, 11:38:02.402, 1560760682402
38, 4698.02, 13441.58, 19026.47, 15650.71, 14225.95, 8976.15, 16117.02, 13491.24, 0.000, 0.000, 0.000, 11:38:02.403, 1560760682403
39, 4698.16, 13435.95, 19024.89, 15644.23, 14222.37, 8986.56, 16113.19, 13493.05, 0.000, 0.000, 0.000, 11:38:02.403, 1560760682403
40, 4694.74, 13435.95, 19030.21, 15646.85, 14223.11, 8988.22, 16118.16, 13500.14, 0.000, 0.000, 0.000, 11:38:02.403, 1560760682403
41, 4690.09, 13442.12, 19042.08, 15656.23, 14221.21, 8977.22, 16112.88, 13494.11, 0.000, 0.000, 0.000, 11:38:02.403, 1560760682403
42, 4700.57, 13464.62, 19055.44, 15664.04, 14225.25, 8985.80, 16114.06, 13493.66, 0.000, 0.000, 0.000, 11:38:02.404, 1560760682404
43, 4703.01, 13459.86, 19043.33, 15649.77, 14219.33, 8986.07, 16106.96, 13490.01, 0.000, 0.000, 0.000, 11:38:02.404, 1560760682404
44, 4693.15, 13432.93, 19038.41, 15636.70, 14223.49, 8982.92, 16110.18, 13494.06, 0.000, 0.000, 0.000, 11:38:02.404, 1560760682404
45, 4687.45, 13420.19, 19025.38, 15639.56, 14223.73, 8988.11, 16114.42, 13496.27, 0.000, 0.000, 0.000, 11:38:02.404, 1560760682404
46, 4689.49, 13418.82, 19023.03, 15630.98, 14222.50, 8973.44, 16114.13, 13485.10, 0.008, 0.058, -1.014, 11:38:02.405, 1560760682405
47, 4694.63, 13416.32, 19026.38, 15624.79, 14224.38, 8966.22, 16111.23, 13479.58, 0.000, 0.000, 0.000, 11:38:02.405, 1560760682405
48, 4699.07, 13416.66, 19033.83, 15621.88, 14226.39, 8976.53, 16112.03, 13483.87, 0.000, 0.000, 0.000, 11:38:02.405, 1560760682405
49, 4680.03, 13398.71, 19018.34, 15597.11, 14209.47, 8963.79, 16083.40, 13466.66, 0.000, 0.000, 0.000, 11:38:02.405, 1560760682405
50, 4677.75, 13392.67, 19016.17, 15590.77, 14202.88, 8954.24, 16086.19, 13470.26, 0.000, 0.000, 0.000, 11:38:02.406, 1560760682406
51, 4689.33, 13393.25, 19035.79, 15597.63, 14215.02, 8947.69, 16103.25, 13475.62, 0.000, 0.000, 0.000, 11:38:02.406, 1560760682406
52, 4681.66, 13377.27, 19038.03, 15587.48, 14208.65, 8934.06, 16092.27, 13454.54, 0.000, 0.000, 0.000, 11:38:02.406, 1560760682406
53, 4681.66, 13377.54, 19032.69, 15582.38, 14205.02, 8939.54, 16095.22, 13455.50, 0.000, 0.000, 0.000, 11:38:02.406, 1560760682406
54, 4684.66, 13380.67, 19030.48, 15578.27, 14205.20, 8947.94, 16096.16, 13465.20, 0.000, 0.000, 0.000, 11:38:02.407, 1560760682407
55, 4689.31, 13381.52, 19018.03, 15581.74, 14203.33, 8950.96, 16095.49, 13470.14, 0.000, 0.000, 0.000, 11:38:02.407, 1560760682407
56, 4693.55, 13385.99, 19026.50, 15588.24, 14201.31, 8941.05, 16095.58, 13467.53, 0.010, 0.058, -1.022, 11:38:02.407, 1560760682407
57, 4705.51, 13401.19, 19035.97, 15595.77, 14211.86, 8944.50, 16097.52, 13469.81, 0.000, 0.000, 0.000, 11:38:02.407, 1560760682407
58, 4710.41, 13407.04, 19023.72, 15594.39, 14210.75, 8953.35, 16098.20, 13470.79, 0.000, 0.000, 0.000, 11:38:02.407, 1560760682407
59, 4708.71, 13404.70, 19027.32, 15591.88, 14212.11, 8961.95, 16098.44, 13472.42, 0.000, 0.000, 0.000, 11:38:02.408, 1560760682408
60, 4695.45, 13395.31, 19027.84, 15583.48, 14202.37, 8951.00, 16093.68, 13468.56, 0.000, 0.000, 0.000, 11:38:02.408, 1560760682408
61, 4690.49, 13388.49, 19032.44, 15588.71, 14206.39, 8935.69, 16094.13, 13462.81, 0.000, 0.000, 0.000, 11:38:02.408, 1560760682408
62, 4703.12, 13390.62, 19030.56, 15602.95, 14208.94, 8932.43, 16090.89, 13458.12, 0.000, 0.000, 0.000, 11:38:02.408, 1560760682408
63, 4706.43, 13400.99, 19050.82, 15606.41, 14215.22, 8947.63, 16097.99, 13464.20, 0.000, 0.000, 0.000, 11:38:02.409, 1560760682409
64, 4697.64, 13395.78, 19056.83, 15592.58, 14204.09, 8943.65, 16091.69, 13460.56, 0.000, 0.000, 0.000, 11:38:02.409, 1560760682409
65, 4696.84, 13395.67, 19038.46, 15588.51, 14199.41, 8938.48, 16087.47, 13459.62, 0.000, 0.000, 0.000, 11:38:02.409, 1560760682409
66, 4696.79, 13400.65, 19033.36, 15598.41, 14199.73, 8934.10, 16087.62, 13455.24, 0.010, 0.058, -1.024, 11:38:02.409, 1560760682409
67, 4701.09, 13405.06, 19036.73, 15600.65, 14199.50, 8930.84, 16086.06, 13457.29, 0.000, 0.000, 0.000, 11:38:02.410, 1560760682410
68, 4709.27, 13413.37, 19033.94, 15599.08, 14207.08, 8942.91, 16090.57, 13462.90, 0.000, 0.000, 0.000, 11:38:02.410, 1560760682410
69, 4705.40, 13407.02, 19026.99, 15588.06, 14200.96, 8944.18, 16088.03, 13465.23, 0.000, 0.000, 0.000, 11:38:02.410, 1560760682410
70, 4704.01, 13401.73, 19022.90, 15584.37, 14191.12, 8938.35, 16087.65, 13461.18, 0.000, 0.000, 0.000, 11:38:02.410, 1560760682410
71, 4705.76, 13400.45, 19025.36, 15596.80, 14193.76, 8922.57, 16091.89, 13457.92, 0.000, 0.000, 0.000, 11:38:02.411, 1560760682411
72, 4711.08, 13413.04, 19037.23, 15612.11, 14201.72, 8924.63, 16091.60, 13462.14, 0.000, 0.000, 0.000, 11:38:02.411, 1560760682411
73, 4698.29, 13405.35, 19039.71, 15602.88, 14194.88, 8929.16, 16080.25, 13455.62, 0.000, 0.000, 0.000, 11:38:02.411, 1560760682411
74, 4695.41, 13399.16, 19034.77, 15597.11, 14197.63, 8938.66, 16070.97, 13455.03, 0.000, 0.000, 0.000, 11:38:02.411, 1560760682411
75, 4690.71, 13391.31, 19020.80, 15589.89, 14190.61, 8927.76, 16059.84, 13441.58, 0.000, 0.000, 0.000, 11:38:02.412, 1560760682412
76, 4701.80, 13397.50, 19027.46, 15595.71, 14192.87, 8914.01, 16060.33, 13438.52, 0.014, 0.060, -1.026, 11:38:02.412, 1560760682412
77, 4708.24, 13406.53, 19030.56, 15604.31, 14196.60, 8919.31, 16063.97, 13440.42, 0.000, 0.000, 0.000, 11:38:02.412, 1560760682412
78, 4715.30, 13414.09, 19049.90, 15615.82, 14204.62, 8940.12, 16086.24, 13455.55, 0.000, 0.000, 0.000, 11:38:02.412, 1560760682412
79, 4706.34, 13401.66, 19049.32, 15598.23, 14191.77, 8939.00, 16077.36, 13455.19, 0.000, 0.000, 0.000, 11:38:02.413, 1560760682413
80, 4706.36, 13403.51, 19023.75, 15594.70, 14194.05, 8935.94, 16076.42, 13457.18, 0.000, 0.000, 0.000, 11:38:02.413, 1560760682413
81, 4703.95, 13408.68, 19022.25, 15597.90, 14194.45, 8927.53, 16078.79, 13448.62, 0.000, 0.000, 0.000, 11:38:02.413, 1560760682413
82, 4707.61, 13409.64, 19031.46, 15599.42, 14194.34, 8920.89, 16080.13, 13441.98, 0.000, 0.000, 0.000, 11:38:02.413, 1560760682413
83, 4700.10, 13405.03, 19031.37, 15595.10, 14193.85, 8925.36, 16073.65, 13442.76, 0.000, 0.000, 0.000, 11:38:02.414, 1560760682414
84, 4701.26, 13405.06, 19041.70, 15595.46, 14203.91, 8941.50, 16073.68, 13449.29, 0.000, 0.000, 0.000, 11:38:02.414, 1560760682414
85, 4701.00, 13401.17, 19038.34, 15591.95, 14203.84, 8938.48, 16072.94, 13445.16, 0.000, 0.000, 0.000, 11:38:02.414, 1560760682414
86, 4699.28, 13396.99, 19021.31, 15592.08, 14199.30, 8922.73, 16069.72, 13438.54, 0.016, 0.056, -1.032, 11:38:02.415, 1560760682415
87, 4708.22, 13407.81, 19034.66, 15599.19, 14201.96, 8921.05, 16075.67, 13438.49, 0.000, 0.000, 0.000, 11:38:02.415, 1560760682415
88, 4711.64, 13417.89, 19048.18, 15600.27, 14203.48, 8935.20, 16075.82, 13441.49, 0.000, 0.000, 0.000, 11:38:02.415, 1560760682415
89, 4702.07, 13409.77, 19037.61, 15594.23, 14201.58, 8940.81, 16063.59, 13434.16, 0.000, 0.000, 0.000, 11:38:02.416, 1560760682416
90, 4689.24, 13393.63, 19030.43, 15583.26, 14184.04, 8928.81, 16050.92, 13424.28, 0.000, 0.000, 0.000, 11:38:02.416, 1560760682416
91, 4695.88, 13389.70, 19035.53, 15590.12, 14186.83, 8919.11, 16056.49, 13424.90, 0.000, 0.000, 0.000, 11:38:02.417, 1560760682417
92, 4706.90, 13394.91, 19028.40, 15595.15, 14196.06, 8918.95, 16065.38, 13432.35, 0.000, 0.000, 0.000, 11:38:02.417, 1560760682417
93, 4706.79, 13404.63, 19028.15, 15594.86, 14199.01, 8933.19, 16073.21, 13445.22, 0.000, 0.000, 0.000, 11:38:02.417, 1560760682417
94, 4704.55, 13405.48, 19030.52, 15584.26, 14200.53, 8942.17, 16069.12, 13445.60, 0.000, 0.000, 0.000, 11:38:02.417, 1560760682417
95, 4698.58, 13397.77, 19026.18, 15581.96, 14196.06, 8938.57, 16065.56, 13440.28, 0.000, 0.000, 0.000, 11:38:02.418, 1560760682418
96, 4695.99, 13397.81, 19012.30, 15587.12, 14188.48, 8919.62, 16061.34, 13431.23, 0.008, 0.058, -1.032, 11:38:02.418, 1560760682418
97, 4705.22, 13411.20, 19029.00, 15596.98, 14198.03, 8925.48, 16070.66, 13439.50, 0.000, 0.000, 0.000, 11:38:02.418, 1560760682418
98, 4701.98, 13408.01, 19042.57, 15595.42, 14200.78, 8936.14, 16077.14, 13447.10, 0.000, 0.000, 0.000, 11:38:02.418, 1560760682418
99, 4704.46, 13404.85, 19043.26, 15590.81, 14196.80, 8938.10, 16074.77, 13449.76, 0.000, 0.000, 0.000, 11:38:02.418, 1560760682418
100, 4702.99, 13406.84, 19042.37, 15592.87, 14196.42, 8940.74, 16071.51, 13449.92, 0.000, 0.000, 0.000, 11:38:02.418, 1560760682418
101, 4706.94, 13415.16, 19040.87, 15606.17, 14205.61, 8937.90, 16083.91, 13455.57, 0.000, 0.000, 0.000, 11:38:02.418, 1560760682418
102, 4713.18, 13415.99, 19038.01, 15609.81, 14208.40, 8935.69, 16086.53, 13452.87, 0.000, 0.000, 0.000, 11:38:02.419, 1560760682419
103, 4699.86, 13405.28, 19027.97, 15598.10, 14197.58, 8934.42, 16076.71, 13448.44, 0.000, 0.000, 0.000, 11:38:02.419, 1560760682419
104, 4699.86, 13406.40, 19031.75, 15594.66, 14200.29, 8943.51, 16071.55, 13457.74, 0.000, 0.000, 0.000, 11:38:02.419, 1560760682419
105, 4704.95, 13407.47, 19033.34, 15593.87, 14205.61, 8942.24, 16070.52, 13456.98, 0.000, 0.000, 0.000, 11:38:02.419, 1560760682419
106, 4707.86, 13409.48, 19021.63, 15594.79, 14204.06, 8931.04, 16077.52, 13448.40, 0.010, 0.058, -1.040, 11:38:02.419, 1560760682419
107, 4704.51, 13407.69, 19028.06, 15598.79, 14202.72, 8923.96, 16079.60, 13440.73, 0.000, 0.000, 0.000, 11:38:02.420, 1560760682420
108, 4712.95, 13414.26, 19037.94, 15604.33, 14210.43, 8939.24, 16087.20, 13447.17, 0.000, 0.000, 0.000, 11:38:02.420, 1560760682420
109, 4706.85, 13409.37, 19025.69, 15596.09, 14204.96, 8945.66, 16078.57, 13451.26, 0.000, 0.000, 0.000, 11:38:02.420, 1560760682420
110, 4700.28, 13396.65, 19021.71, 15587.06, 14198.05, 8934.33, 16074.46, 13446.70, 0.000, 0.000, 0.000, 11:38:02.420, 1560760682420
111, 4704.91, 13403.60, 19043.19, 15597.74, 14206.05, 8932.34, 16083.51, 13450.47, 0.000, 0.000, 0.000, 11:38:02.420, 1560760682420
112, 4703.83, 13404.52, 19051.04, 15594.45, 14205.00, 8927.53, 16083.73, 13448.98, 0.000, 0.000, 0.000, 11:38:02.420, 1560760682420
113, 4710.97, 13413.82, 19047.89, 15600.13, 14202.45, 8936.79, 16090.04, 13458.34, 0.000, 0.000, 0.000, 11:38:02.420, 1560760682420
114, 4708.31, 13412.57, 19032.82, 15592.22, 14200.51, 8942.15, 16079.00, 13456.76, 0.000, 0.000, 0.000, 11:38:02.421, 1560760682421
115, 4711.10, 13414.85, 19038.61, 15594.83, 14204.44, 8943.09, 16075.75, 13452.35, 0.000, 0.000, 0.000, 11:38:02.421, 1560760682421
116, 4704.10, 13403.07, 19040.36, 15591.53, 14196.00, 8921.85, 16072.45, 13439.12, 0.012, 0.056, -1.034, 11:38:02.421, 1560760682421
117, 4726.19, 13422.56, 19052.49, 15613.52, 14211.33, 8932.09, 16092.50, 13457.47, 0.000, 0.000, 0.000, 11:38:02.421, 1560760682421
118, 4728.69, 13432.59, 19045.79, 15611.02, 14219.20, 8945.19, 16090.26, 13463.35, 0.000, 0.000, 0.000, 11:38:02.421, 1560760682421
119, 4713.71, 13419.16, 19035.88, 15599.30, 14210.23, 8945.59, 16080.54, 13455.57, 0.000, 0.000, 0.000, 11:38:02.421, 1560760682421
120, 4702.81, 13406.26, 19034.43, 15596.04, 14201.47, 8935.89, 16078.79, 13447.21, 0.000, 0.000, 0.000, 11:38:02.875, 1560760682875
121, 4711.43, 13411.05, 19043.57, 15605.56, 14210.63, 8928.47, 16084.09, 13447.57, 0.000, 0.000, 0.000, 11:38:02.875, 1560760682875
122, 4714.34, 13415.20, 19052.27, 15612.63, 14216.56, 8929.03, 16086.50, 13449.78, 0.000, 0.000, 0.000, 11:38:02.875, 1560760682875
123, 4710.09, 13408.05, 19040.04, 15603.51, 14210.21, 8938.26, 16080.13, 13451.55, 0.000, 0.000, 0.000, 11:38:02.875, 1560760682875
124, 4716.06, 13410.44, 19035.15, 15604.27, 14211.93, 8951.09, 16078.62, 13456.96, 0.000, 0.000, 0.000, 11:38:02.875, 1560760682875
125, 4715.28, 13412.41, 19036.04, 15603.91, 14213.12, 8950.04, 16082.46, 13457.60, 0.006, 0.054, -1.038, 11:38:02.875, 1560760682875
126, 4721.45, 13411.56, 19052.04, 15605.58, 14210.10, 8934.73, 16081.30, 13452.49, 0.000, 0.000, 0.000, 11:38:02.875, 1560760682875
127, 4740.22, 13423.90, 19061.86, 15612.42, 14220.22, 8935.49, 16089.19, 13459.75, 0.000, 0.000, 0.000, 11:38:02.876, 1560760682876
128, 4723.91, 13423.92, 19042.81, 15602.84, 14216.07, 8940.94, 16083.64, 13455.01, 0.000, 0.000, 0.000, 11:38:02.876, 1560760682876
129, 4707.59, 13416.17, 19040.98, 15601.03, 14210.25, 8946.26, 16081.21, 13458.30, 0.000, 0.000, 0.000, 11:38:02.876, 1560760682876
130, 4703.97, 13403.74, 19030.86, 15592.40, 14202.59, 8939.27, 16076.87, 13453.94, 0.000, 0.000, 0.000, 11:38:02.876, 1560760682876
131, 4709.62, 13406.71, 19033.38, 15596.55, 14207.46, 8929.32, 16085.50, 13450.34, 0.000, 0.000, 0.000, 11:38:02.876, 1560760682876
132, 4715.50, 13413.93, 19030.01, 15601.65, 14204.35, 8926.59, 16091.00, 13449.11, 0.000, 0.000, 0.000, 11:38:02.876, 1560760682876
133, 4714.52, 13412.86, 19030.34, 15599.21, 14202.23, 8932.94, 16084.72, 13447.59, 0.000, 0.000, 0.000, 11:38:02.876, 1560760682876
134, 4702.92, 13404.07, 19033.13, 15589.98, 14197.49, 8933.95, 16072.71, 13443.75, 0.000, 0.000, 0.000, 11:38:02.876, 1560760682876
135, 4701.56, 13404.88, 19035.50, 15591.75, 14198.36, 8927.24, 16070.43, 13445.87, 0.008, 0.058, -1.036, 11:38:02.876, 1560760682876
136, 4697.98, 13406.55, 19032.76, 15597.85, 14199.35, 8918.52, 16074.32, 13443.14, 0.000, 0.000, 0.000, 11:38:02.876, 1560760682876
137, 4713.40, 13419.27, 19054.12, 15612.94, 14209.58, 8927.80, 16084.90, 13452.58, 0.000, 0.000, 0.000, 11:38:02.877, 1560760682877
138, 4711.77, 13414.58, 19049.21, 15605.34, 14207.71, 8937.12, 16085.16, 13454.95, 0.000, 0.000, 0.000, 11:38:02.877, 1560760682877
139, 4695.50, 13397.32, 19020.95, 15584.46, 14198.39, 8931.56, 16071.35, 13442.43, 0.000, 0.000, 0.000, 11:38:02.877, 1560760682877
140, 4688.26, 13390.19, 19007.72, 15576.37, 14188.73, 8921.90, 16063.48, 13435.48, 0.000, 0.000, 0.000, 11:38:02.877, 1560760682877
141, 4699.01, 13393.59, 19012.57, 15585.20, 14192.11, 8912.94, 16069.74, 13438.49, 0.000, 0.000, 0.000, 11:38:02.877, 1560760682877
142, 4718.34, 13413.97, 19030.54, 15606.34, 14207.80, 8921.34, 16081.83, 13449.87, 0.000, 0.000, 0.000, 11:38:02.877, 1560760682877
143, 4719.68, 13420.17, 19035.21, 15604.76, 14209.76, 8931.56, 16082.17, 13452.20, 0.000, 0.000, 0.000, 11:38:02.877, 1560760682877
144, 4714.07, 13418.06, 19040.33, 15602.43, 14207.98, 8943.33, 16081.27, 13454.45, 0.000, 0.000, 0.000, 11:38:02.877, 1560760682877
145, 4708.91, 13412.79, 19035.06, 15603.95, 14198.21, 8940.94, 16077.45, 13451.82, 0.006, 0.056, -1.030, 11:38:02.877, 1560760682877
146, 4719.30, 13418.49, 19033.70, 15605.43, 14202.28, 8928.02, 16076.67, 13446.65, 0.000, 0.000, 0.000, 11:38:02.877, 1560760682877
147, 4731.66, 13436.55, 19042.97, 15613.70, 14216.13, 8928.34, 16084.36, 13449.11, 0.000, 0.000, 0.000, 11:38:02.877, 1560760682877
148, 4719.79, 13423.41, 19050.70, 15605.61, 14220.92, 8934.28, 16083.22, 13453.80, 0.000, 0.000, 0.000, 11:38:02.878, 1560760682878
149, 4728.67, 13424.52, 19050.32, 15606.93, 14226.39, 8948.92, 16091.38, 13466.34, 0.000, 0.000, 0.000, 11:38:02.878, 1560760682878
150, 4716.84, 13411.00, 19030.36, 15587.97, 14210.50, 8928.36, 16076.07, 13453.36, 0.000, 0.000, 0.000, 11:38:02.878, 1560760682878
151, 4721.43, 13417.04, 19034.83, 15595.59, 14206.70, 8919.33, 16078.10, 13446.21, 0.000, 0.000, 0.000, 11:38:02.878, 1560760682878
152, 4738.41, 13442.56, 19047.11, 15617.14, 14225.77, 8935.40, 16095.85, 13457.63, 0.000, 0.000, 0.000, 11:38:02.878, 1560760682878
153, 4743.38, 13448.13, 19048.83, 15620.52, 14234.17, 8951.29, 16096.50, 13463.46, 0.000, 0.000, 0.000, 11:38:02.878, 1560760682878
154, 4736.07, 13432.08, 19038.81, 15613.50, 14227.67, 8955.58, 16081.77, 13455.59, 0.000, 0.000, 0.000, 11:38:02.878, 1560760682878
155, 4729.16, 13421.95, 19036.04, 15609.90, 14218.21, 8943.40, 16084.85, 13456.53, 0.004, 0.054, -1.032, 11:38:02.878, 1560760682878
156, 4729.81, 13426.54, 19051.73, 15616.18, 14218.50, 8930.06, 16090.95, 13457.87, 0.000, 0.000, 0.000, 11:38:02.878, 1560760682878
157, 4736.80, 13430.45, 19056.22, 15617.52, 14223.60, 8932.14, 16099.16, 13466.12, 0.000, 0.000, 0.000, 11:38:02.878, 1560760682878
158, 4731.15, 13433.08, 19050.35, 15612.04, 14221.70, 8938.64, 16090.06, 13461.32, 0.000, 0.000, 0.000, 11:38:02.879, 1560760682879
159, 4725.05, 13426.58, 19046.10, 15600.73, 14217.81, 8944.70, 16076.67, 13447.77, 0.000, 0.000, 0.000, 11:38:02.879, 1560760682879
160, 4740.67, 13433.13, 19041.25, 15613.65, 14221.77, 8951.00, 16079.31, 13450.74, 0.000, 0.000, 0.000, 11:38:02.879, 1560760682879
161, 4746.28, 13442.32, 19048.78, 15624.96, 14228.58, 8946.53, 16071.78, 13446.47, 0.000, 0.000, 0.000, 11:38:02.879, 1560760682879
162, 4739.37, 13440.68, 19051.84, 15621.92, 14224.45, 8936.03, 16069.07, 13441.85, 0.000, 0.000, 0.000, 11:38:02.879, 1560760682879
163, 4738.64, 13435.52, 19064.72, 15619.87, 14228.76, 8949.46, 16103.78, 13458.63, 0.000, 0.000, 0.000, 11:38:02.879, 1560760682879
164, 4737.05, 13427.12, 19060.52, 15613.07, 14228.36, 8955.56, 16096.92, 13459.28, 0.000, 0.000, 0.000, 11:38:02.879, 1560760682879
165, 4740.87, 13432.48, 19058.93, 15612.67, 14220.78, 8954.24, 16090.26, 13463.37, 0.006, 0.056, -1.032, 11:38:02.879, 1560760682879
166, 4744.74, 13445.98, 19065.84, 15619.55, 14227.11, 8949.21, 16102.11, 13473.81, 0.000, 0.000, 0.000, 11:38:02.879, 1560760682879
167, 4738.12, 13439.81, 19051.31, 15623.96, 14225.83, 8945.03, 16102.82, 13466.99, 0.000, 0.000, 0.000, 11:38:02.879, 1560760682879
168, 4730.59, 13433.08, 19044.40, 15621.03, 14210.66, 8950.15, 16089.37, 13460.96, 0.000, 0.000, 0.000, 11:38:02.880, 1560760682880
169, 4737.94, 13434.83, 19055.89, 15621.61, 14219.71, 8961.42, 16089.03, 13469.70, 0.000, 0.000, 0.000, 11:38:02.880, 1560760682880
170, 4734.28, 13424.50, 19043.69, 15608.31, 14217.56, 8950.98, 16071.98, 13454.03, 0.000, 0.000, 0.000, 11:38:02.880, 1560760682880
171, 4732.18, 13424.99, 19040.02, 15607.84, 14211.64, 8937.48, 16071.37, 13446.41, 0.000, 0.000, 0.000, 11:38:02.880, 1560760682880
172, 4732.80, 13434.29, 19052.18, 15617.54, 14222.21, 8938.44, 16084.07, 13446.61, 0.000, 0.000, 0.000, 11:38:02.880, 1560760682880
173, 4735.82, 13434.49, 19056.98, 15619.02, 14225.83, 8948.43, 16083.38, 13449.11, 0.000, 0.000, 0.000, 11:38:02.880, 1560760682880
174, 4741.52, 13435.99, 19057.46, 15617.32, 14222.26, 8958.60, 16077.45, 13454.61, 0.000, 0.000, 0.000, 11:38:02.880, 1560760682880
175, 4736.51, 13431.34, 19053.97, 15610.79, 14214.59, 8953.97, 16073.43, 13449.02, 0.010, 0.060, -1.026, 11:38:02.880, 1560760682880
176, 4739.80, 13434.11, 19055.22, 15619.29, 14215.46, 8943.78, 16078.44, 13450.52, 0.000, 0.000, 0.000, 11:38:02.880, 1560760682880
177, 4742.46, 13435.28, 19060.49, 15622.82, 14217.81, 8937.23, 16076.38, 13447.55, 0.000, 0.000, 0.000, 11:38:02.881, 1560760682881
178, 4746.15, 13441.18, 19052.31, 15621.70, 14218.08, 8948.83, 16074.01, 13447.68, 0.000, 0.000, 0.000, 11:38:02.881, 1560760682881
179, 4737.32, 13434.25, 19037.99, 15609.45, 14209.43, 8949.39, 16071.64, 13442.65, 0.000, 0.000, 0.000, 11:38:02.881, 1560760682881
180, 4724.94, 13422.16, 19032.53, 15592.35, 14195.97, 8935.47, 16057.31, 13433.91, 0.000, 0.000, 0.000, 11:38:02.881, 1560760682881
181, 4729.47, 13422.69, 19035.08, 15600.60, 14195.91, 8927.35, 16057.40, 13435.05, 0.000, 0.000, 0.000, 11:38:02.881, 1560760682881
182, 4745.86, 13433.98, 19046.84, 15615.33, 14207.17, 8934.35, 16071.66, 13447.12, 0.000, 0.000, 0.000, 11:38:02.881, 1560760682881
183, 4747.49, 13432.68, 19052.00, 15611.73, 14217.52, 8944.79, 16077.01, 13452.08, 0.000, 0.000, 0.000, 11:38:02.882, 1560760682882
184, 4734.84, 13430.72, 19043.69, 15600.47, 14220.07, 8948.52, 16071.13, 13445.67, 0.000, 0.000, 0.000, 11:38:02.882, 1560760682882
185, 4719.39, 13422.29, 19046.01, 15591.84, 14208.78, 8939.40, 16061.63, 13445.78, 0.014, 0.062, -1.026, 11:38:02.882, 1560760682882
186, 4725.23, 13427.88, 19046.01, 15602.70, 14210.66, 8933.86, 16076.00, 13454.25, 0.000, 0.000, 0.000, 11:38:02.883, 1560760682883
187, 4731.39, 13431.97, 19049.92, 15603.15, 14209.09, 8928.29, 16082.84, 13453.80, 0.000, 0.000, 0.000, 11:38:02.883, 1560760682883
188, 4732.74, 13433.31, 19034.43, 15605.63, 14207.86, 8935.76, 16077.30, 13453.25, 0.000, 0.000, 0.000, 11:38:02.883, 1560760682883
189, 4727.33, 13433.11, 19029.92, 15602.54, 14211.53, 8945.03, 16070.05, 13449.36, 0.000, 0.000, 0.000, 11:38:02.883, 1560760682883
190, 4720.82, 13425.08, 19031.17, 15598.37, 14204.64, 8941.03, 16063.33, 13444.71, 0.000, 0.000, 0.000, 11:38:02.883, 1560760682883
191, 4722.34, 13418.27, 19033.90, 15604.74, 14201.65, 8927.31, 16081.01, 13448.22, 0.000, 0.000, 0.000, 11:38:02.883, 1560760682883
192, 4730.77, 13428.95, 19038.97, 15607.06, 14211.75, 8927.04, 16089.03, 13456.06, 0.000, 0.000, 0.000, 11:38:02.883, 1560760682883
193, 4738.28, 13438.72, 19054.84, 15616.47, 14224.25, 8948.61, 16092.65, 13469.61, 0.000, 0.000, 0.000, 11:38:02.883, 1560760682883
194, 4730.37, 13428.88, 19042.77, 15604.40, 14211.37, 8949.68, 16080.47, 13461.20, 0.000, 0.000, 0.000, 11:38:02.883, 1560760682883
195, 4730.25, 13426.40, 19029.38, 15594.97, 14207.98, 8940.25, 16069.92, 13450.79, 0.014, 0.054, -1.028, 11:38:02.883, 1560760682883
196, 4737.39, 13429.53, 19056.98, 15596.20, 14213.38, 8929.86, 16076.27, 13450.74, 0.000, 0.000, 0.000, 11:38:02.883, 1560760682883
197, 4727.91, 13423.14, 19038.95, 15596.40, 14215.80, 8923.35, 16077.74, 13446.41, 0.000, 0.000, 0.000, 11:38:02.883, 1560760682883
198, 4709.89, 13405.84, 19019.61, 15584.55, 14204.98, 8920.47, 16063.30, 13437.02, 0.000, 0.000, 0.000, 11:38:02.884, 1560760682884
199, 4705.76, 13404.09, 19019.95, 15580.57, 14201.63, 8929.34, 16063.01, 13440.30, 0.000, 0.000, 0.000, 11:38:02.884, 1560760682884
200, 4715.37, 13417.48, 19028.46, 15592.80, 14207.53, 8935.96, 16074.82, 13449.45, 0.000, 0.000, 0.000, 11:38:02.884, 1560760682884
201, 4722.43, 13419.03, 19040.31, 15593.56, 14211.26, 8927.51, 16076.58, 13448.22, 0.000, 0.000, 0.000, 11:38:02.884, 1560760682884
202, 4727.86, 13421.86, 19035.77, 15596.53, 14215.60, 8925.83, 16077.23, 13446.50, 0.000, 0.000, 0.000, 11:38:02.884, 1560760682884
203, 4720.08, 13418.62, 19028.22, 15598.03, 14210.52, 8931.11, 16071.91, 13445.54, 0.000, 0.000, 0.000, 11:38:02.884, 1560760682884
204, 4717.11, 13417.55, 19032.98, 15600.80, 14207.39, 8942.33, 16072.25, 13450.45, 0.000, 0.000, 0.000, 11:38:02.884, 1560760682884
205, 4718.72, 13418.87, 19036.06, 15605.14, 14210.21, 8945.48, 16070.84, 13447.93, 0.010, 0.056, -1.024, 11:38:02.884, 1560760682884
206, 4721.87, 13424.21, 19035.17, 15609.41, 14215.17, 8932.74, 16071.93, 13441.96, 0.000, 0.000, 0.000, 11:38:02.884, 1560760682884
207, 4724.40, 13428.73, 19049.50, 15608.65, 14215.73, 8927.98, 16080.13, 13446.50, 0.000, 0.000, 0.000, 11:38:02.884, 1560760682884
208, 4735.95, 13427.43, 19049.63, 15608.29, 14215.20, 8936.03, 16081.79, 13450.21, 0.000, 0.000, 0.000, 11:38:02.884, 1560760682884
209, 4728.38, 13427.56, 19038.08, 15601.61, 14210.52, 8942.96, 16071.15, 13447.23, 0.000, 0.000, 0.000, 11:38:02.885, 1560760682885
210, 4724.69, 13429.78, 19026.54, 15594.52, 14202.39, 8942.55, 16062.54, 13448.19, 0.000, 0.000, 0.000, 11:38:02.885, 1560760682885
211, 4720.84, 13425.11, 19020.51, 15601.09, 14207.53, 8925.97, 16064.51, 13446.90, 0.000, 0.000, 0.000, 11:38:02.885, 1560760682885
212, 4735.40, 13433.84, 19039.62, 15609.90, 14219.75, 8929.59, 16076.11, 13453.27, 0.000, 0.000, 0.000, 11:38:02.885, 1560760682885
213, 4731.17, 13425.89, 19041.16, 15604.20, 14221.74, 8937.25, 16076.51, 13452.24, 0.000, 0.000, 0.000, 11:38:02.885, 1560760682885
214, 4730.37, 13430.22, 19045.47, 15609.30, 14230.21, 8955.29, 16089.43, 13466.66, 0.000, 0.000, 0.000, 11:38:02.885, 1560760682885
215, 4715.19, 13419.74, 19036.42, 15596.13, 14219.00, 8946.44, 16069.36, 13449.36, 0.006, 0.056, -1.030, 11:38:02.885, 1560760682885
216, 4717.13, 13425.91, 19042.86, 15597.20, 14213.72, 8936.83, 16067.91, 13439.83, 0.000, 0.000, 0.000, 11:38:02.885, 1560760682885
217, 4732.67, 13433.51, 19049.25, 15608.54, 14220.51, 8935.47, 16084.09, 13447.39, 0.000, 0.000, 0.000, 11:38:02.885, 1560760682885
218, 4737.36, 13433.71, 19053.36, 15616.81, 14225.97, 8948.30, 16087.42, 13457.85, 0.000, 0.000, 0.000, 11:38:02.885, 1560760682885
219, 4732.67, 13432.08, 19053.54, 15612.00, 14222.66, 8956.23, 16079.38, 13461.07, 0.000, 0.000, 0.000, 11:38:02.886, 1560760682886
220, 4726.19, 13432.28, 19045.23, 15609.09, 14220.92, 8952.70, 16072.96, 13456.04, 0.000, 0.000, 0.000, 11:38:02.886, 1560760682886
221, 4730.48, 13427.16, 19045.79, 15613.74, 14220.31, 8941.50, 16079.71, 13456.20, 0.000, 0.000, 0.000, 11:38:02.886, 1560760682886
222, 4739.96, 13434.47, 19058.84, 15625.88, 14225.30, 8942.71, 16085.61, 13460.47, 0.000, 0.000, 0.000, 11:38:02.886, 1560760682886
223, 4731.82, 13433.82, 19042.59, 15616.22, 14226.33, 8950.84, 16078.59, 13451.93, 0.000, 0.000, 0.000, 11:38:02.886, 1560760682886
224, 4724.18, 13432.53, 19030.41, 15603.22, 14217.56, 8954.47, 16077.70, 13459.10, 0.000, 0.000, 0.000, 11:38:02.886, 1560760682886
225, 4724.35, 13430.76, 19036.47, 15601.14, 14217.45, 8954.47, 16079.17, 13461.11, 0.006, 0.056, -1.028, 11:38:02.886, 1560760682886
226, 4732.60, 13436.53, 19044.74, 15613.03, 14224.85, 8950.51, 16084.07, 13460.35, 0.000, 0.000, 0.000, 11:38:02.886, 1560760682886
227, 4735.37, 13434.63, 19044.00, 15616.92, 14227.42, 8945.57, 16081.30, 13459.06, 0.000, 0.000, 0.000, 11:38:02.886, 1560760682886
228, 4744.56, 13437.53, 19046.39, 15618.39, 14229.88, 8957.42, 16083.38, 13466.88, 0.000, 0.000, 0.000, 11:38:02.886, 1560760682886
229, 4733.56, 13432.01, 19050.26, 15610.19, 14224.38, 8960.28, 16072.47, 13463.95, 0.000, 0.000, 0.000, 11:38:02.887, 1560760682887
230, 4718.05, 13425.64, 19038.90, 15600.47, 14216.36, 8950.33, 16059.08, 13451.17, 0.000, 0.000, 0.000, 11:38:02.887, 1560760682887
231, 4721.83, 13429.33, 19042.14, 15608.96, 14219.75, 8943.40, 16071.60, 13449.78, 0.000, 0.000, 0.000, 11:38:02.887, 1560760682887
232, 4734.95, 13440.42, 19056.05, 15623.67, 14228.14, 8946.71, 16089.92, 13461.32, 0.000, 0.000, 0.000, 11:38:02.887, 1560760682887
233, 4740.85, 13444.98, 19060.54, 15626.66, 14232.92, 8957.77, 16089.14, 13464.60, 0.000, 0.000, 0.000, 11:38:02.888, 1560760682888
234, 4747.89, 13449.89, 19052.36, 15628.12, 14236.52, 8973.02, 16090.77, 13468.69, 0.008, 0.050, -1.032, 11:38:02.888, 1560760682888
235, 4739.42, 13446.41, 19045.21, 15623.47, 14234.98, 8966.67, 16083.44, 13465.29, 0.000, 0.000, 0.000, 11:38:02.888, 1560760682888
236, 4738.70, 13438.74, 19051.22, 15622.84, 14230.95, 8952.34, 16076.85, 13461.32, 0.000, 0.000, 0.000, 11:38:02.888, 1560760682888
237, 4746.10, 13441.85, 19067.51, 15627.53, 14230.28, 8950.84, 16083.04, 13464.94, 0.000, 0.000, 0.000, 11:38:02.888, 1560760682888
238, 4744.25, 13446.90, 19055.82, 15626.04, 14236.54, 8958.44, 16086.13, 13463.82, 0.000, 0.000, 0.000, 11:38:02.888, 1560760682888
239, 4733.97, 13444.37, 19038.41, 15622.33, 14230.91, 8959.09, 16078.64, 13458.70, 0.000, 0.000, 0.000, 11:38:02.888, 1560760682888
240, 4727.64, 13441.85, 19048.89, 15609.52, 14220.87, 8950.91, 16068.71, 13454.07, 0.000, 0.000, 0.000, 11:38:03.351, 1560760683351
241, 4731.10, 13442.03, 19056.43, 15611.75, 14226.80, 8944.99, 16080.92, 13458.57, 0.000, 0.000, 0.000, 11:38:03.351, 1560760683351
242, 4739.26, 13440.24, 19052.45, 15622.06, 14228.27, 8944.70, 16079.71, 13465.09, 0.000, 0.000, 0.000, 11:38:03.351, 1560760683351
243, 4749.54, 13441.74, 19066.91, 15624.36, 14234.98, 8959.36, 16083.11, 13470.08, 0.000, 0.000, 0.000, 11:38:03.351, 1560760683351
244, 4744.07, 13441.31, 19058.50, 15616.38, 14230.26, 8964.66, 16081.43, 13464.60, 0.008, 0.050, -1.030, 11:38:03.351, 1560760683351
245, 4724.96, 13433.00, 19040.47, 15605.12, 14216.49, 8954.87, 16071.37, 13451.35, 0.000, 0.000, 0.000, 11:38:03.351, 1560760683351
246, 4734.55, 13443.30, 19041.21, 15618.82, 14221.05, 8952.57, 16081.88, 13457.22, 0.000, 0.000, 0.000, 11:38:03.351, 1560760683351
247, 4739.35, 13440.68, 19045.23, 15619.24, 14223.89, 8939.49, 16082.77, 13454.10, 0.000, 0.000, 0.000, 11:38:03.351, 1560760683351
248, 4740.51, 13443.50, 19048.67, 15618.08, 14229.52, 8943.18, 16089.28, 13457.22, 0.000, 0.000, 0.000, 11:38:03.351, 1560760683351
249, 4743.20, 13446.74, 19050.62, 15615.17, 14229.41, 8954.80, 16087.33, 13470.23, 0.000, 0.000, 0.000, 11:38:03.351, 1560760683351
250, 4748.29, 13447.55, 19053.83, 15613.92, 14225.14, 8953.46, 16084.40, 13469.97, 0.000, 0.000, 0.000, 11:38:03.351, 1560760683351
251, 4746.82, 13454.52, 19055.11, 15622.21, 14228.83, 8948.27, 16090.26, 13475.84, 0.000, 0.000, 0.000, 11:38:03.351, 1560760683351
