%OpenBCI Raw EEG Data
%Number of channels = 8
%Sample Rate = 250.0 Hz
%First Column = SampleIndex
%Last Column = Timestamp 
%Other Columns = EEG data in microvolts followed by Accel Data (in G) interleaved with Aux Data
0, -3490.25, 4376.58, 4516.19, 7950.69, 4145.91, 7261.75, 4253.20, 4702.76, 0.000, -0.014, 0.508, 21:34:00.217, 1559846040217
1, -3489.98, 4375.98, 4516.37, 7952.33, 4146.72, 7263.31, 4251.61, 4701.91, 0.000, 0.000, 0.000, 21:34:00.699, 1559846040699
2, -3488.01, 4376.36, 4516.77, 7947.39, 4147.46, 7258.97, 4252.82, 4702.52, 0.000, 0.000, 0.000, 21:34:00.699, 1559846040699
3, -3489.00, 4377.57, 4516.24, 7943.97, 4147.61, 7256.07, 4252.44, 4703.32, 0.000, 0.000, 0.000, 21:34:00.700, 1559846040700
4, -3490.47, 4375.87, 4515.57, 7946.85, 4147.41, 7258.51, 4251.88, 4700.93, 0.000, 0.000, 0.000, 21:34:00.700, 1559846040700
5, -3489.49, 4376.87, 4514.83, 7952.97, 4144.77, 7263.38, 4250.05, 4700.33, 0.000, 0.000, 0.000, 21:34:00.700, 1559846040700
6, -3489.91, 4378.93, 4514.14, 7953.85, 4143.48, 7264.05, 4250.39, 4700.33, 0.000, 0.000, 0.000, 21:34:00.700, 1559846040700
7, -3488.30, 4377.54, 4515.52, 7948.35, 4147.32, 7260.03, 4252.44, 4700.42, 0.002, -0.018, 0.772, 21:34:00.700, 1559846040700
8, -3490.07, 4376.99, 4515.97, 7944.50, 4150.65, 7256.18, 4252.11, 4700.71, 0.000, 0.000, 0.000, 21:34:00.700, 1559846040700
9, -3491.50, 4376.87, 4513.31, 7947.50, 4149.33, 7258.42, 4251.28, 4701.31, 0.000, 0.000, 0.000, 21:34:00.700, 1559846040700
10, -3492.12, 4377.07, 4514.18, 7954.27, 4145.98, 7265.19, 4252.33, 4703.23, 0.000, 0.000, 0.000, 21:34:00.700, 1559846040700
11, -3492.21, 4375.96, 4515.63, 7954.81, 4145.20, 7265.48, 4250.47, 4702.94, 0.000, 0.000, 0.000, 21:34:00.700, 1559846040700
12, -3491.28, 4375.42, 4515.68, 7949.91, 4146.45, 7260.74, 4251.17, 4700.77, 0.000, 0.000, 0.000, 21:34:00.700, 1559846040700
13, -3491.21, 4377.52, 4516.97, 7946.69, 4147.92, 7257.79, 4252.37, 4701.53, 0.000, 0.000, 0.000, 21:34:00.700, 1559846040700
14, -3488.48, 4378.15, 4516.24, 7948.39, 4149.51, 7259.38, 4250.34, 4701.04, 0.000, 0.000, 0.000, 21:34:00.700, 1559846040700
15, -3489.13, 4376.34, 4514.74, 7954.90, 4147.99, 7264.90, 4250.45, 4702.38, 0.000, 0.000, 0.000, 21:34:00.701, 1559846040701
16, -3492.15, 4376.99, 4514.29, 7956.64, 4147.39, 7266.62, 4251.15, 4701.91, 0.000, 0.000, 0.000, 21:34:00.701, 1559846040701
17, -3491.16, 4377.19, 4513.69, 7950.67, 4147.39, 7262.04, 4251.61, 4699.52, 0.010, -0.026, 0.892, 21:34:00.701, 1559846040701
18, -3489.24, 4377.28, 4514.69, 7945.89, 4149.02, 7258.01, 4251.32, 4700.30, 0.000, 0.000, 0.000, 21:34:00.701, 1559846040701
19, -3491.83, 4374.93, 4513.98, 7948.93, 4148.57, 7260.70, 4253.27, 4702.94, 0.000, 0.000, 0.000, 21:34:00.701, 1559846040701
20, -3492.06, 4374.59, 4516.08, 7954.96, 4146.92, 7265.52, 4253.85, 4701.38, 0.000, 0.000, 0.000, 21:34:00.701, 1559846040701
21, -3490.16, 4377.05, 4516.37, 7955.41, 4145.11, 7266.17, 4252.55, 4701.09, 0.000, 0.000, 0.000, 21:34:00.701, 1559846040701
22, -3488.30, 4377.30, 4518.49, 7949.91, 4147.34, 7261.43, 4251.55, 4703.68, 0.000, 0.000, 0.000, 21:34:00.701, 1559846040701
23, -3488.97, 4377.39, 4517.02, 7945.22, 4149.58, 7256.87, 4252.04, 4702.18, 0.000, 0.000, 0.000, 21:34:00.701, 1559846040701
24, -3490.14, 4376.54, 4515.66, 7946.96, 4148.80, 7257.97, 4252.22, 4701.71, 0.000, 0.000, 0.000, 21:34:00.701, 1559846040701
25, -3490.87, 4376.56, 4516.37, 7952.84, 4146.78, 7263.58, 4250.47, 4701.62, 0.000, 0.000, 0.000, 21:34:00.701, 1559846040701
26, -3491.03, 4375.76, 4517.42, 7953.62, 4148.35, 7264.52, 4248.46, 4703.12, 0.000, 0.000, 0.000, 21:34:00.702, 1559846040702
27, -3489.76, 4375.31, 4517.24, 7948.35, 4150.38, 7260.74, 4251.23, 4703.10, 0.008, -0.028, 0.958, 21:34:00.702, 1559846040702
28, -3486.31, 4376.27, 4516.24, 7944.21, 4150.74, 7256.61, 4251.70, 4702.61, 0.000, 0.000, 0.000, 21:34:00.702, 1559846040702
29, -3486.63, 4377.79, 4515.39, 7946.29, 4147.99, 7258.19, 4251.03, 4700.91, 0.000, 0.000, 0.000, 21:34:00.702, 1559846040702
30, -3488.75, 4376.43, 4515.66, 7952.19, 4145.51, 7263.44, 4250.39, 4699.41, 0.000, 0.000, 0.000, 21:34:00.702, 1559846040702
31, -3489.11, 4375.62, 4515.66, 7954.20, 4148.24, 7265.34, 4250.47, 4700.71, 0.000, 0.000, 0.000, 21:34:00.702, 1559846040702
32, -3490.45, 4376.67, 4516.82, 7949.76, 4151.14, 7261.48, 4251.50, 4700.33, 0.000, 0.000, 0.000, 21:34:00.702, 1559846040702
33, -3491.25, 4376.67, 4515.86, 7946.58, 4150.72, 7258.37, 4252.71, 4701.69, 0.000, 0.000, 0.000, 21:34:00.703, 1559846040703
34, -3490.25, 4377.61, 4515.14, 7949.31, 4149.91, 7260.87, 4251.15, 4701.15, 0.000, 0.000, 0.000, 21:34:00.703, 1559846040703
35, -3489.26, 4378.04, 4515.50, 7954.18, 4148.57, 7265.70, 4249.49, 4702.23, 0.000, 0.000, 0.000, 21:34:00.703, 1559846040703
36, -3489.53, 4376.65, 4515.72, 7955.43, 4149.36, 7267.20, 4249.94, 4702.72, 0.012, -0.028, 0.986, 21:34:00.703, 1559846040703
37, -3490.67, 4377.25, 4516.82, 7950.54, 4148.84, 7262.89, 4252.84, 4701.20, 0.000, 0.000, 0.000, 21:34:00.703, 1559846040703
38, -3489.35, 4377.81, 4516.84, 7945.87, 4149.02, 7258.59, 4253.49, 4699.77, 0.000, 0.000, 0.000, 21:34:00.703, 1559846040703
39, -3491.54, 4377.48, 4516.75, 7948.10, 4147.66, 7261.05, 4250.81, 4700.59, 0.000, 0.000, 0.000, 21:34:00.703, 1559846040703
40, -3489.31, 4375.71, 4516.24, 7953.76, 4146.63, 7266.46, 4249.49, 4700.33, 0.000, 0.000, 0.000, 21:34:00.703, 1559846040703
41, -3490.36, 4376.94, 4515.39, 7955.54, 4146.45, 7267.51, 4250.05, 4700.46, 0.000, 0.000, 0.000, 21:34:00.704, 1559846040704
42, -3490.45, 4376.47, 4516.71, 7949.93, 4146.54, 7262.06, 4251.57, 4701.13, 0.000, 0.000, 0.000, 21:34:00.704, 1559846040704
43, -3488.86, 4376.99, 4516.35, 7945.24, 4147.61, 7257.52, 4254.56, 4701.87, 0.000, 0.000, 0.000, 21:34:00.704, 1559846040704
44, -3489.60, 4377.19, 4514.81, 7946.69, 4145.65, 7258.59, 4252.33, 4701.58, 0.000, 0.000, 0.000, 21:34:00.704, 1559846040704
45, -3490.43, 4376.31, 4515.63, 7954.27, 4147.39, 7266.35, 4249.71, 4701.18, 0.000, 0.000, 0.000, 21:34:00.704, 1559846040704
46, -3492.95, 4376.20, 4516.64, 7956.28, 4146.70, 7268.43, 4248.55, 4702.43, 0.008, -0.028, 0.998, 21:34:00.704, 1559846040704
47, -3490.05, 4376.99, 4518.16, 7951.36, 4147.43, 7264.05, 4249.27, 4702.00, 0.000, 0.000, 0.000, 21:34:00.704, 1559846040704
48, -3488.41, 4378.13, 4516.91, 7946.96, 4148.77, 7260.36, 4251.06, 4700.30, 0.000, 0.000, 0.000, 21:34:00.704, 1559846040704
49, -3489.42, 4377.83, 4517.22, 7948.86, 4148.17, 7261.54, 4251.93, 4700.64, 0.000, 0.000, 0.000, 21:34:00.705, 1559846040705
50, -3487.86, 4376.31, 4516.35, 7954.56, 4145.47, 7266.06, 4247.46, 4703.21, 0.000, 0.000, 0.000, 21:34:00.705, 1559846040705
51, -3489.26, 4374.15, 4515.39, 7957.22, 4146.96, 7268.32, 4249.71, 4703.23, 0.000, 0.000, 0.000, 21:34:00.705, 1559846040705
52, -3489.71, 4376.72, 4517.24, 7951.90, 4147.25, 7264.12, 4250.88, 4702.29, 0.000, 0.000, 0.000, 21:34:00.705, 1559846040705
53, -3490.81, 4379.20, 4515.41, 7947.72, 4147.99, 7260.54, 4250.18, 4702.09, 0.000, 0.000, 0.000, 21:34:00.705, 1559846040705
54, -3488.88, 4377.50, 4516.44, 7950.14, 4148.13, 7262.75, 4252.71, 4702.61, 0.000, 0.000, 0.000, 21:34:00.705, 1559846040705
55, -3489.53, 4376.11, 4516.50, 7954.90, 4147.32, 7266.84, 4250.79, 4700.71, 0.000, 0.000, 0.000, 21:34:00.705, 1559846040705
56, -3488.84, 4376.25, 4515.32, 7956.86, 4148.17, 7268.41, 4251.03, 4700.19, 0.012, -0.028, 1.010, 21:34:00.705, 1559846040705
57, -3485.89, 4376.65, 4513.53, 7952.17, 4147.28, 7264.23, 4251.37, 4701.15, 0.000, 0.000, 0.000, 21:34:00.706, 1559846040706
58, -3486.80, 4378.59, 4514.40, 7947.10, 4149.65, 7260.11, 4252.44, 4700.35, 0.000, 0.000, 0.000, 21:34:00.706, 1559846040706
59, -3488.59, 4375.00, 4516.97, 7949.62, 4148.89, 7261.70, 4252.06, 4701.89, 0.000, 0.000, 0.000, 21:34:00.706, 1559846040706
60, -3489.29, 4373.43, 4516.64, 7954.99, 4146.14, 7266.86, 4250.50, 4700.91, 0.000, 0.000, 0.000, 21:34:00.706, 1559846040706
61, -3489.26, 4375.11, 4514.96, 7956.10, 4145.58, 7268.03, 4251.61, 4701.44, 0.000, 0.000, 0.000, 21:34:00.706, 1559846040706
62, -3487.25, 4377.19, 4516.13, 7950.83, 4148.22, 7263.24, 4250.65, 4702.00, 0.000, 0.000, 0.000, 21:34:00.706, 1559846040706
63, -3487.94, 4374.88, 4516.82, 7945.62, 4150.14, 7258.53, 4250.65, 4700.44, 0.000, 0.000, 0.000, 21:34:00.709, 1559846040709
64, -3487.54, 4375.31, 4515.63, 7948.30, 4147.99, 7261.57, 4251.37, 4700.59, 0.000, 0.000, 0.000, 21:34:00.709, 1559846040709
65, -3489.42, 4375.35, 4514.83, 7954.56, 4146.36, 7266.84, 4250.88, 4700.73, 0.000, 0.000, 0.000, 21:34:00.710, 1559846040710
66, -3488.30, 4377.48, 4514.02, 7956.86, 4146.11, 7268.43, 4252.46, 4701.42, 0.012, -0.028, 1.020, 21:34:00.711, 1559846040711
67, -3489.20, 4377.10, 4513.49, 7951.32, 4147.50, 7263.38, 4251.41, 4700.44, 0.000, 0.000, 0.000, 21:34:00.712, 1559846040712
68, -3490.20, 4375.91, 4513.02, 7946.16, 4147.61, 7258.97, 4249.54, 4699.99, 0.000, 0.000, 0.000, 21:34:00.712, 1559846040712
69, -3487.97, 4374.53, 4514.18, 7947.70, 4146.83, 7260.92, 4249.22, 4701.40, 0.000, 0.000, 0.000, 21:34:00.713, 1559846040713
70, -3488.24, 4373.77, 4515.07, 7953.56, 4146.07, 7265.68, 4251.73, 4701.22, 0.000, 0.000, 0.000, 21:34:00.713, 1559846040713
71, -3489.02, 4375.09, 4515.48, 7956.35, 4146.65, 7268.30, 4251.73, 4701.11, 0.000, 0.000, 0.000, 21:34:00.714, 1559846040714
72, -3488.62, 4376.58, 4515.01, 7952.10, 4147.57, 7264.54, 4252.53, 4702.05, 0.000, 0.000, 0.000, 21:34:00.714, 1559846040714
73, -3487.30, 4377.23, 4516.13, 7947.50, 4149.29, 7260.05, 4251.95, 4702.70, 0.000, 0.000, 0.000, 21:34:00.714, 1559846040714
74, -3487.23, 4378.44, 4515.63, 7948.19, 4147.14, 7260.81, 4249.40, 4700.28, 0.000, 0.000, 0.000, 21:34:00.715, 1559846040715
75, -3489.31, 4377.10, 4513.40, 7953.18, 4145.09, 7265.77, 4249.45, 4699.90, 0.000, 0.000, 0.000, 21:34:00.715, 1559846040715
76, -3491.68, 4374.55, 4515.41, 7955.52, 4147.17, 7267.74, 4251.75, 4701.87, 0.012, -0.026, 1.020, 21:34:00.715, 1559846040715
77, -3492.08, 4376.36, 4517.02, 7950.85, 4148.57, 7263.74, 4252.49, 4701.62, 0.000, 0.000, 0.000, 21:34:00.715, 1559846040715
78, -3491.54, 4378.28, 4517.38, 7945.69, 4148.57, 7259.18, 4251.39, 4702.36, 0.000, 0.000, 0.000, 21:34:00.715, 1559846040715
79, -3489.51, 4377.83, 4515.92, 7947.92, 4149.00, 7260.58, 4252.24, 4701.60, 0.000, 0.000, 0.000, 21:34:00.715, 1559846040715
80, -3486.47, 4376.38, 4515.54, 7953.98, 4146.58, 7266.08, 4251.93, 4701.85, 0.000, 0.000, 0.000, 21:34:00.716, 1559846040716
81, -3488.06, 4375.09, 4516.42, 7956.68, 4146.70, 7269.19, 4251.37, 4702.90, 0.000, 0.000, 0.000, 21:34:00.716, 1559846040716
82, -3490.31, 4375.49, 4517.42, 7951.41, 4148.73, 7263.69, 4251.15, 4701.56, 0.000, 0.000, 0.000, 21:34:00.716, 1559846040716
83, -3490.40, 4376.40, 4517.13, 7946.00, 4147.92, 7258.53, 4250.03, 4701.38, 0.000, 0.000, 0.000, 21:34:00.716, 1559846040716
84, -3488.15, 4377.43, 4515.90, 7947.54, 4149.00, 7260.20, 4251.99, 4700.84, 0.000, 0.000, 0.000, 21:34:00.716, 1559846040716
85, -3488.64, 4377.54, 4515.90, 7953.85, 4147.88, 7265.75, 4251.10, 4701.33, 0.000, 0.000, 0.000, 21:34:00.716, 1559846040716
86, -3487.01, 4376.90, 4514.90, 7956.77, 4148.13, 7269.46, 4251.17, 4703.48, 0.010, -0.026, 1.014, 21:34:00.716, 1559846040716
87, -3490.09, 4377.77, 4514.07, 7951.95, 4150.00, 7264.74, 4251.95, 4703.34, 0.000, 0.000, 0.000, 21:34:00.716, 1559846040716
88, -3492.26, 4377.05, 4515.54, 7946.74, 4149.98, 7259.80, 4252.15, 4701.89, 0.000, 0.000, 0.000, 21:34:00.716, 1559846040716
89, -3488.03, 4378.17, 4515.90, 7949.15, 4149.89, 7262.55, 4254.86, 4702.52, 0.000, 0.000, 0.000, 21:34:00.716, 1559846040716
90, -3489.38, 4375.33, 4513.91, 7954.11, 4147.50, 7266.78, 4253.34, 4701.89, 0.000, 0.000, 0.000, 21:34:00.716, 1559846040716
91, -3488.82, 4376.90, 4514.36, 7956.15, 4146.23, 7268.00, 4251.06, 4701.76, 0.000, 0.000, 0.000, 21:34:00.717, 1559846040717
92, -3490.02, 4377.14, 4515.03, 7951.12, 4146.94, 7263.60, 4251.73, 4702.11, 0.000, 0.000, 0.000, 21:34:00.717, 1559846040717
93, -3491.88, 4377.30, 4516.93, 7946.58, 4147.61, 7259.82, 4253.47, 4700.64, 0.000, 0.000, 0.000, 21:34:00.717, 1559846040717
94, -3490.54, 4377.83, 4516.30, 7948.55, 4147.75, 7261.10, 4253.29, 4702.67, 0.000, 0.000, 0.000, 21:34:00.717, 1559846040717
95, -3490.20, 4376.63, 4513.24, 7954.18, 4145.94, 7266.73, 4251.01, 4700.88, 0.000, 0.000, 0.000, 21:34:00.717, 1559846040717
96, -3489.08, 4375.87, 4514.58, 7956.73, 4146.34, 7269.06, 4250.70, 4702.16, 0.016, -0.026, 1.014, 21:34:00.717, 1559846040717
97, -3491.10, 4375.82, 4518.47, 7951.83, 4146.83, 7264.34, 4250.54, 4701.60, 0.000, 0.000, 0.000, 21:34:00.717, 1559846040717
98, -3492.17, 4375.53, 4518.47, 7946.60, 4148.55, 7259.98, 4253.20, 4701.31, 0.000, 0.000, 0.000, 21:34:00.717, 1559846040717
99, -3492.75, 4375.56, 4517.31, 7947.63, 4148.86, 7261.03, 4252.26, 4701.26, 0.000, 0.000, 0.000, 21:34:00.717, 1559846040717
100, -3487.92, 4376.09, 4514.78, 7952.84, 4146.16, 7265.88, 4251.66, 4698.69, 0.000, 0.000, 0.000, 21:34:00.718, 1559846040718
101, -3489.26, 4376.09, 4514.81, 7955.21, 4144.28, 7267.69, 4249.71, 4700.84, 0.000, 0.000, 0.000, 21:34:00.718, 1559846040718
102, -3491.10, 4377.41, 4515.75, 7950.20, 4145.58, 7263.67, 4249.78, 4703.12, 0.000, 0.000, 0.000, 21:34:00.718, 1559846040718
103, -3490.92, 4378.39, 4518.79, 7946.13, 4147.37, 7259.80, 4249.94, 4702.56, 0.000, 0.000, 0.000, 21:34:00.718, 1559846040718
104, -3489.60, 4377.95, 4516.91, 7948.19, 4147.81, 7261.37, 4251.06, 4701.31, 0.000, 0.000, 0.000, 21:34:00.718, 1559846040718
105, -3488.01, 4377.97, 4517.58, 7953.15, 4146.32, 7265.86, 4250.25, 4702.16, 0.000, 0.000, 0.000, 21:34:00.718, 1559846040718
106, -3489.82, 4378.57, 4515.59, 7955.90, 4149.06, 7268.00, 4250.70, 4702.34, 0.014, -0.030, 1.010, 21:34:00.719, 1559846040719
107, -3489.80, 4379.02, 4515.52, 7950.98, 4149.71, 7264.07, 4251.12, 4701.33, 0.000, 0.000, 0.000, 21:34:00.719, 1559846040719
108, -3489.20, 4377.99, 4517.85, 7945.78, 4148.89, 7259.06, 4251.82, 4700.88, 0.000, 0.000, 0.000, 21:34:00.719, 1559846040719
109, -3488.82, 4377.41, 4515.57, 7946.72, 4149.67, 7260.14, 4252.73, 4702.63, 0.000, 0.000, 0.000, 21:34:00.719, 1559846040719
110, -3487.39, 4375.56, 4515.61, 7952.53, 4147.61, 7265.14, 4250.47, 4703.28, 0.000, 0.000, 0.000, 21:34:00.719, 1559846040719
111, -3490.56, 4373.72, 4515.12, 7954.94, 4147.66, 7266.57, 4251.17, 4700.59, 0.000, 0.000, 0.000, 21:34:00.719, 1559846040719
112, -3493.00, 4375.20, 4513.89, 7951.10, 4149.67, 7263.91, 4252.78, 4700.19, 0.000, 0.000, 0.000, 21:34:00.719, 1559846040719
113, -3491.43, 4377.41, 4515.01, 7947.72, 4149.85, 7261.19, 4252.31, 4701.94, 0.000, 0.000, 0.000, 21:34:00.719, 1559846040719
114, -3489.64, 4376.18, 4517.53, 7948.64, 4150.03, 7262.24, 4253.74, 4703.12, 0.000, 0.000, 0.000, 21:34:00.719, 1559846040719
115, -3487.43, 4375.78, 4515.37, 7953.15, 4147.46, 7266.06, 4252.73, 4701.35, 0.000, 0.000, 0.000, 21:34:00.719, 1559846040719
116, -3489.08, 4377.34, 4514.78, 7955.08, 4146.83, 7267.49, 4250.83, 4700.26, 0.012, -0.028, 1.010, 21:34:00.719, 1559846040719
117, -3490.47, 4377.95, 4514.56, 7949.82, 4149.33, 7263.27, 4250.39, 4700.04, 0.000, 0.000, 0.000, 21:34:00.720, 1559846040720
118, -3487.34, 4377.19, 4515.21, 7945.11, 4148.55, 7258.64, 4252.58, 4699.86, 0.000, 0.000, 0.000, 21:34:00.720, 1559846040720
119, -3485.35, 4375.87, 4514.25, 7946.27, 4146.27, 7259.29, 4252.82, 4699.16, 0.000, 0.000, 0.000, 21:34:00.720, 1559846040720
120, -3487.68, 4375.22, 4513.62, 7951.99, 4147.46, 7264.67, 4251.88, 4700.48, 0.000, 0.000, 0.000, 21:34:00.720, 1559846040720
121, -3489.64, 4377.99, 4514.34, 7954.58, 4146.14, 7266.86, 4251.26, 4701.47, 0.000, 0.000, 0.000, 21:34:01.187, 1559846041187
122, -3488.86, 4377.39, 4516.06, 7949.64, 4148.80, 7262.53, 4251.17, 4701.60, 0.000, 0.000, 0.000, 21:34:01.187, 1559846041187
123, -3488.86, 4378.51, 4517.11, 7945.24, 4151.77, 7258.75, 4251.17, 4701.22, 0.000, 0.000, 0.000, 21:34:01.188, 1559846041188
124, -3488.24, 4378.46, 4516.82, 7946.47, 4150.25, 7260.32, 4251.73, 4702.16, 0.000, 0.000, 0.000, 21:34:01.188, 1559846041188
125, -3487.36, 4377.05, 4514.94, 7951.61, 4146.90, 7264.38, 4249.38, 4703.12, 0.000, 0.000, 0.000, 21:34:01.188, 1559846041188
126, -3491.03, 4377.95, 4515.41, 7954.67, 4145.18, 7267.20, 4249.69, 4703.32, 0.014, -0.030, 1.014, 21:34:01.189, 1559846041189
127, -3490.27, 4377.41, 4516.73, 7949.35, 4146.96, 7263.00, 4251.46, 4699.52, 0.000, 0.000, 0.000, 21:34:01.189, 1559846041189
128, -3489.82, 4378.24, 4517.13, 7944.55, 4149.51, 7259.02, 4251.32, 4699.66, 0.000, 0.000, 0.000, 21:34:01.189, 1559846041189
129, -3488.97, 4378.44, 4515.03, 7946.22, 4150.65, 7260.70, 4251.61, 4699.41, 0.000, 0.000, 0.000, 21:34:01.189, 1559846041189
130, -3489.55, 4375.26, 4514.85, 7952.10, 4147.84, 7265.28, 4251.21, 4701.26, 0.000, 0.000, 0.000, 21:34:01.190, 1559846041190
131, -3490.27, 4376.23, 4515.52, 7954.34, 4146.72, 7267.56, 4250.27, 4700.73, 0.000, 0.000, 0.000, 21:34:01.190, 1559846041190
132, -3488.79, 4373.97, 4515.43, 7949.04, 4148.28, 7262.93, 4250.99, 4701.24, 0.000, 0.000, 0.000, 21:34:01.190, 1559846041190
133, -3490.00, 4376.11, 4516.53, 7944.15, 4149.85, 7258.21, 4250.77, 4701.44, 0.000, 0.000, 0.000, 21:34:01.190, 1559846041190
134, -3490.94, 4378.28, 4515.48, 7945.89, 4149.71, 7260.11, 4251.93, 4700.55, 0.000, 0.000, 0.000, 21:34:01.190, 1559846041190
135, -3490.72, 4376.72, 4513.11, 7950.69, 4146.49, 7263.76, 4249.25, 4700.30, 0.000, 0.000, 0.000, 21:34:01.190, 1559846041190
136, -3487.18, 4376.40, 4514.67, 7953.96, 4146.65, 7267.04, 4250.25, 4701.89, 0.016, -0.030, 1.016, 21:34:01.191, 1559846041191
137, -3488.53, 4376.20, 4517.53, 7950.36, 4150.23, 7263.33, 4252.91, 4702.63, 0.000, 0.000, 0.000, 21:34:01.191, 1559846041191
138, -3488.86, 4377.48, 4516.19, 7944.88, 4150.41, 7258.75, 4253.67, 4701.20, 0.000, 0.000, 0.000, 21:34:01.191, 1559846041191
139, -3490.47, 4376.67, 4515.14, 7945.82, 4149.82, 7259.76, 4251.57, 4701.13, 0.000, 0.000, 0.000, 21:34:01.191, 1559846041191
140, -3490.74, 4377.46, 4515.30, 7951.54, 4147.23, 7265.28, 4250.39, 4702.27, 0.000, 0.000, 0.000, 21:34:01.191, 1559846041191
141, -3490.05, 4377.30, 4514.58, 7954.05, 4147.68, 7267.29, 4249.69, 4702.56, 0.000, 0.000, 0.000, 21:34:01.191, 1559846041191
142, -3490.63, 4378.68, 4515.05, 7950.05, 4148.17, 7264.52, 4251.84, 4702.09, 0.000, 0.000, 0.000, 21:34:01.191, 1559846041191
143, -3491.59, 4379.56, 4515.92, 7945.13, 4150.36, 7259.71, 4250.61, 4701.49, 0.000, 0.000, 0.000, 21:34:01.192, 1559846041192
144, -3490.25, 4380.45, 4515.68, 7946.65, 4149.00, 7260.47, 4253.16, 4702.61, 0.000, 0.000, 0.000, 21:34:01.192, 1559846041192
145, -3491.57, 4376.81, 4513.55, 7952.73, 4147.68, 7265.52, 4252.96, 4703.43, 0.012, -0.024, 1.014, 21:34:01.192, 1559846041192
146, -3491.61, 4376.76, 4513.15, 7954.52, 4146.11, 7267.13, 4249.63, 4701.04, 0.000, 0.000, 0.000, 21:34:01.192, 1559846041192
147, -3489.91, 4376.29, 4514.45, 7949.87, 4146.94, 7262.51, 4249.85, 4700.55, 0.000, 0.000, 0.000, 21:34:01.192, 1559846041192
148, -3488.79, 4377.61, 4515.45, 7944.93, 4147.95, 7258.48, 4251.12, 4701.24, 0.000, 0.000, 0.000, 21:34:01.192, 1559846041192
149, -3489.80, 4378.33, 4514.49, 7945.69, 4145.65, 7259.91, 4250.68, 4699.45, 0.000, 0.000, 0.000, 21:34:01.193, 1559846041193
150, -3488.79, 4376.11, 4513.35, 7951.83, 4145.00, 7265.30, 4251.23, 4701.89, 0.000, 0.000, 0.000, 21:34:01.193, 1559846041193
151, -3489.38, 4375.20, 4512.88, 7954.11, 4144.82, 7267.56, 4252.73, 4701.33, 0.000, 0.000, 0.000, 21:34:01.193, 1559846041193
152, -3488.79, 4376.81, 4514.56, 7949.60, 4144.86, 7263.40, 4251.08, 4699.86, 0.000, 0.000, 0.000, 21:34:01.194, 1559846041194
153, -3490.20, 4378.89, 4516.19, 7944.66, 4146.38, 7259.27, 4251.39, 4701.47, 0.000, 0.000, 0.000, 21:34:01.194, 1559846041194
154, -3490.69, 4379.11, 4515.97, 7946.36, 4146.56, 7260.45, 4252.33, 4704.48, 0.000, 0.000, 0.000, 21:34:01.194, 1559846041194
155, -3488.15, 4377.77, 4516.48, 7953.29, 4145.15, 7266.75, 4252.26, 4704.42, 0.016, -0.028, 1.010, 21:34:01.194, 1559846041194
156, -3487.54, 4376.90, 4514.65, 7955.52, 4145.09, 7268.52, 4251.99, 4702.81, 0.000, 0.000, 0.000, 21:34:01.194, 1559846041194
157, -3488.46, 4375.33, 4516.48, 7950.02, 4147.39, 7263.69, 4250.92, 4700.33, 0.000, 0.000, 0.000, 21:34:01.194, 1559846041194
158, -3490.74, 4375.64, 4518.52, 7944.90, 4149.04, 7259.73, 4251.53, 4700.44, 0.000, 0.000, 0.000, 21:34:01.195, 1559846041195
159, -3489.11, 4376.09, 4516.75, 7945.82, 4148.98, 7259.80, 4251.55, 4699.66, 0.000, 0.000, 0.000, 21:34:01.196, 1559846041196
160, -3488.12, 4376.11, 4515.19, 7951.63, 4147.32, 7265.14, 4251.28, 4700.04, 0.000, 0.000, 0.000, 21:34:01.196, 1559846041196
161, -3488.19, 4377.07, 4514.49, 7954.83, 4146.76, 7268.09, 4252.17, 4700.10, 0.000, 0.000, 0.000, 21:34:01.196, 1559846041196
162, -3486.65, 4377.57, 4514.94, 7949.98, 4149.02, 7263.56, 4252.31, 4699.54, 0.000, 0.000, 0.000, 21:34:01.196, 1559846041196
163, -3488.59, 4378.55, 4516.28, 7945.24, 4151.03, 7259.38, 4253.38, 4701.53, 0.000, 0.000, 0.000, 21:34:01.196, 1559846041196
164, -3489.38, 4377.57, 4516.64, 7945.64, 4146.90, 7260.09, 4252.98, 4700.26, 0.000, 0.000, 0.000, 21:34:01.197, 1559846041197
165, -3487.65, 4373.88, 4514.47, 7951.95, 4146.67, 7265.43, 4251.10, 4700.44, 0.014, -0.028, 1.020, 21:34:01.197, 1559846041197
166, -3487.27, 4375.24, 4513.58, 7954.96, 4147.72, 7268.76, 4251.95, 4701.64, 0.000, 0.000, 0.000, 21:34:01.197, 1559846041197
167, -3488.93, 4376.74, 4515.41, 7950.38, 4148.68, 7264.34, 4253.07, 4701.58, 0.000, 0.000, 0.000, 21:34:01.197, 1559846041197
168, -3488.68, 4378.82, 4515.43, 7945.17, 4149.00, 7259.38, 4252.62, 4700.91, 0.000, 0.000, 0.000, 21:34:01.197, 1559846041197
169, -3488.30, 4378.57, 4512.95, 7945.82, 4148.46, 7259.24, 4251.73, 4699.32, 0.000, 0.000, 0.000, 21:34:01.197, 1559846041197
170, -3489.69, 4376.45, 4514.36, 7951.61, 4146.87, 7264.18, 4250.70, 4700.55, 0.000, 0.000, 0.000, 21:34:01.197, 1559846041197
171, -3489.08, 4374.68, 4514.85, 7954.52, 4146.45, 7267.20, 4251.30, 4700.46, 0.000, 0.000, 0.000, 21:34:01.198, 1559846041198
172, -3489.82, 4374.71, 4514.90, 7949.93, 4146.52, 7263.51, 4251.84, 4701.42, 0.000, 0.000, 0.000, 21:34:01.198, 1559846041198
173, -3490.45, 4375.29, 4514.72, 7943.79, 4149.89, 7259.11, 4252.37, 4700.42, 0.000, 0.000, 0.000, 21:34:01.198, 1559846041198
174, -3488.32, 4376.14, 4515.66, 7945.04, 4150.94, 7259.87, 4253.65, 4700.77, 0.000, 0.000, 0.000, 21:34:01.199, 1559846041199
175, -3489.00, 4378.06, 4513.35, 7950.96, 4146.99, 7265.12, 4252.26, 4702.85, 0.016, -0.026, 1.018, 21:34:01.199, 1559846041199
176, -3490.14, 4375.82, 4514.02, 7954.34, 4148.15, 7268.09, 4250.99, 4701.94, 0.000, 0.000, 0.000, 21:34:01.200, 1559846041200
177, -3488.77, 4376.43, 4514.29, 7950.49, 4147.99, 7264.58, 4250.79, 4700.88, 0.000, 0.000, 0.000, 21:34:01.200, 1559846041200
178, -3487.34, 4378.17, 4516.35, 7945.26, 4146.65, 7259.89, 4251.64, 4700.28, 0.000, 0.000, 0.000, 21:34:01.200, 1559846041200
179, -3490.43, 4377.59, 4513.55, 7945.62, 4146.56, 7260.18, 4252.44, 4701.00, 0.000, 0.000, 0.000, 21:34:01.200, 1559846041200
180, -3488.12, 4377.46, 4513.17, 7950.81, 4146.74, 7264.50, 4251.15, 4700.50, 0.000, 0.000, 0.000, 21:34:01.201, 1559846041201
181, -3487.79, 4377.46, 4514.07, 7953.94, 4145.89, 7267.76, 4250.25, 4699.12, 0.000, 0.000, 0.000, 21:34:01.201, 1559846041201
182, -3488.48, 4378.28, 4514.63, 7949.82, 4147.99, 7264.29, 4249.65, 4700.55, 0.000, 0.000, 0.000, 21:34:01.202, 1559846041202
183, -3489.60, 4378.26, 4516.13, 7944.75, 4148.66, 7260.09, 4250.54, 4701.89, 0.000, 0.000, 0.000, 21:34:01.202, 1559846041202
184, -3490.20, 4377.23, 4515.23, 7945.37, 4149.91, 7260.67, 4250.77, 4703.16, 0.000, 0.000, 0.000, 21:34:01.202, 1559846041202
185, -3487.52, 4376.58, 4513.82, 7951.30, 4148.28, 7265.55, 4250.72, 4701.20, 0.014, -0.028, 1.020, 21:34:01.202, 1559846041202
186, -3486.92, 4375.35, 4514.60, 7954.00, 4147.75, 7268.30, 4251.03, 4702.09, 0.000, 0.000, 0.000, 21:34:01.202, 1559846041202
187, -3490.96, 4377.63, 4517.15, 7950.16, 4146.94, 7264.45, 4249.45, 4702.00, 0.000, 0.000, 0.000, 21:34:01.202, 1559846041202
188, -3488.66, 4377.12, 4516.35, 7944.50, 4148.91, 7259.11, 4250.70, 4700.57, 0.000, 0.000, 0.000, 21:34:01.203, 1559846041203
189, -3488.21, 4376.90, 4514.00, 7945.02, 4147.61, 7259.31, 4252.80, 4701.56, 0.000, 0.000, 0.000, 21:34:01.203, 1559846041203
190, -3488.64, 4378.35, 4512.39, 7950.81, 4147.84, 7264.12, 4252.82, 4701.67, 0.000, 0.000, 0.000, 21:34:01.203, 1559846041203
191, -3491.28, 4376.99, 4513.24, 7954.02, 4147.75, 7267.85, 4250.05, 4702.23, 0.000, 0.000, 0.000, 21:34:01.203, 1559846041203
192, -3491.32, 4378.75, 4514.69, 7950.34, 4147.23, 7265.37, 4251.73, 4701.49, 0.000, 0.000, 0.000, 21:34:01.204, 1559846041204
193, -3491.41, 4379.78, 4515.39, 7945.11, 4148.30, 7260.41, 4251.99, 4701.85, 0.000, 0.000, 0.000, 21:34:01.204, 1559846041204
194, -3491.21, 4378.17, 4514.20, 7944.79, 4148.37, 7260.03, 4249.94, 4700.53, 0.000, 0.000, 0.000, 21:34:01.204, 1559846041204
195, -3491.97, 4377.99, 4513.11, 7949.69, 4147.70, 7263.96, 4249.54, 4700.10, 0.010, -0.030, 1.016, 21:34:01.204, 1559846041204
196, -3489.71, 4376.99, 4512.79, 7953.11, 4148.15, 7266.66, 4250.72, 4701.49, 0.000, 0.000, 0.000, 21:34:01.205, 1559846041205
197, -3489.26, 4377.07, 4515.37, 7948.91, 4146.38, 7263.78, 4251.66, 4701.31, 0.000, 0.000, 0.000, 21:34:01.205, 1559846041205
198, -3490.34, 4376.58, 4514.90, 7943.43, 4148.42, 7258.57, 4253.78, 4700.33, 0.000, 0.000, 0.000, 21:34:01.205, 1559846041205
199, -3489.84, 4377.70, 4513.67, 7944.12, 4149.15, 7258.84, 4252.33, 4700.88, 0.000, 0.000, 0.000, 21:34:01.206, 1559846041206
200, -3488.19, 4377.95, 4513.58, 7950.11, 4148.95, 7264.34, 4252.49, 4701.64, 0.000, 0.000, 0.000, 21:34:01.206, 1559846041206
201, -3490.38, 4377.77, 4513.89, 7953.26, 4147.39, 7266.91, 4249.92, 4701.44, 0.000, 0.000, 0.000, 21:34:01.206, 1559846041206
202, -3490.58, 4377.88, 4515.52, 7949.93, 4147.48, 7263.56, 4250.21, 4702.94, 0.000, 0.000, 0.000, 21:34:01.206, 1559846041206
203, -3492.15, 4376.78, 4515.01, 7945.60, 4148.75, 7260.09, 4252.13, 4702.67, 0.000, 0.000, 0.000, 21:34:01.207, 1559846041207
204, -3492.37, 4375.60, 4515.14, 7945.67, 4148.30, 7260.47, 4252.20, 4701.91, 0.000, 0.000, 0.000, 21:34:01.207, 1559846041207
205, -3493.15, 4375.38, 4513.85, 7950.94, 4147.05, 7265.59, 4251.50, 4700.39, 0.010, -0.028, 1.012, 21:34:01.207, 1559846041207
206, -3491.81, 4376.23, 4514.54, 7954.69, 4147.05, 7268.70, 4253.83, 4700.30, 0.000, 0.000, 0.000, 21:34:01.207, 1559846041207
207, -3492.68, 4376.05, 4516.97, 7951.43, 4148.68, 7265.59, 4251.97, 4699.19, 0.000, 0.000, 0.000, 21:34:01.207, 1559846041207
208, -3491.03, 4377.79, 4517.13, 7946.78, 4149.67, 7262.17, 4251.77, 4700.21, 0.000, 0.000, 0.000, 21:34:01.207, 1559846041207
209, -3490.27, 4378.15, 4514.18, 7946.96, 4149.87, 7262.71, 4253.34, 4700.50, 0.000, 0.000, 0.000, 21:34:01.208, 1559846041208
210, -3490.29, 4376.58, 4511.65, 7951.83, 4148.80, 7266.57, 4250.88, 4700.35, 0.000, 0.000, 0.000, 21:34:01.208, 1559846041208
211, -3490.31, 4376.81, 4513.82, 7956.30, 4146.29, 7270.31, 4248.49, 4701.53, 0.000, 0.000, 0.000, 21:34:01.208, 1559846041208
212, -3492.66, 4378.30, 4516.37, 7953.26, 4146.34, 7267.38, 4250.14, 4700.93, 0.000, 0.000, 0.000, 21:34:01.208, 1559846041208
213, -3493.04, 4378.95, 4516.33, 7949.00, 4147.90, 7263.49, 4251.59, 4700.73, 0.000, 0.000, 0.000, 21:34:01.208, 1559846041208
214, -3492.30, 4377.19, 4514.00, 7949.60, 4147.77, 7264.41, 4249.60, 4701.42, 0.000, 0.000, 0.000, 21:34:01.209, 1559846041209
215, -3491.66, 4375.26, 4512.71, 7955.41, 4144.93, 7269.55, 4250.61, 4702.16, 0.014, -0.032, 1.016, 21:34:01.209, 1559846041209
216, -3488.35, 4374.12, 4513.91, 7959.14, 4143.68, 7273.35, 4249.87, 4700.80, 0.000, 0.000, 0.000, 21:34:01.209, 1559846041209
217, -3491.43, 4376.09, 4513.78, 7956.06, 4145.24, 7269.97, 4251.32, 4701.62, 0.000, 0.000, 0.000, 21:34:01.212, 1559846041212
218, -3491.83, 4377.86, 4515.01, 7950.47, 4149.56, 7264.61, 4252.11, 4702.20, 0.000, 0.000, 0.000, 21:34:01.213, 1559846041213
219, -3489.33, 4378.66, 4513.87, 7949.98, 4148.22, 7263.94, 4254.01, 4702.31, 0.000, 0.000, 0.000, 21:34:01.213, 1559846041213
220, -3491.21, 4377.16, 4514.18, 7955.43, 4145.87, 7269.61, 4254.54, 4701.87, 0.000, 0.000, 0.000, 21:34:01.214, 1559846041214
221, -3492.59, 4376.31, 4513.02, 7958.52, 4144.97, 7272.63, 4253.11, 4703.03, 0.000, 0.000, 0.000, 21:34:01.214, 1559846041214
222, -3490.98, 4375.98, 4514.92, 7955.63, 4146.20, 7270.69, 4252.73, 4702.45, 0.000, 0.000, 0.000, 21:34:01.214, 1559846041214
223, -3491.72, 4376.23, 4516.13, 7951.16, 4149.24, 7266.53, 4251.44, 4703.10, 0.000, 0.000, 0.000, 21:34:01.214, 1559846041214
224, -3493.47, 4376.76, 4514.96, 7950.16, 4148.57, 7265.01, 4252.31, 4702.05, 0.000, 0.000, 0.000, 21:34:01.214, 1559846041214
225, -3493.85, 4375.91, 4516.50, 7955.86, 4146.32, 7270.26, 4252.04, 4703.28, 0.018, -0.030, 1.016, 21:34:01.215, 1559846041215
226, -3493.42, 4376.00, 4515.79, 7960.24, 4146.45, 7274.29, 4252.26, 4702.83, 0.000, 0.000, 0.000, 21:34:01.215, 1559846041215
227, -3491.10, 4377.54, 4516.15, 7956.13, 4148.44, 7270.64, 4251.77, 4701.87, 0.000, 0.000, 0.000, 21:34:01.215, 1559846041215
228, -3493.69, 4378.30, 4517.33, 7951.05, 4150.41, 7266.13, 4251.48, 4702.47, 0.000, 0.000, 0.000, 21:34:01.215, 1559846041215
229, -3492.39, 4376.74, 4515.30, 7950.18, 4150.27, 7266.02, 4251.39, 4703.99, 0.000, 0.000, 0.000, 21:34:01.215, 1559846041215
230, -3490.87, 4375.31, 4512.64, 7954.92, 4147.25, 7269.84, 4250.14, 4703.52, 0.000, 0.000, 0.000, 21:34:01.216, 1559846041216
231, -3490.31, 4374.97, 4513.11, 7958.18, 4146.74, 7272.70, 4248.49, 4703.01, 0.000, 0.000, 0.000, 21:34:01.216, 1559846041216
232, -3487.68, 4377.83, 4515.52, 7954.81, 4148.06, 7269.64, 4249.36, 4703.03, 0.000, 0.000, 0.000, 21:34:01.216, 1559846041216
233, -3489.04, 4379.00, 4517.24, 7950.54, 4150.45, 7265.90, 4250.81, 4701.49, 0.000, 0.000, 0.000, 21:34:01.216, 1559846041216
234, -3491.16, 4378.24, 4516.48, 7951.19, 4149.71, 7266.84, 4251.61, 4700.82, 0.000, 0.000, 0.000, 21:34:01.216, 1559846041216
235, -3490.16, 4375.04, 4514.43, 7956.10, 4147.77, 7270.87, 4248.89, 4701.51, 0.014, -0.030, 1.014, 21:34:01.217, 1559846041217
236, -3490.40, 4376.23, 4514.87, 7959.86, 4147.84, 7274.00, 4248.75, 4700.84, 0.000, 0.000, 0.000, 21:34:01.217, 1559846041217
237, -3490.31, 4378.71, 4516.30, 7956.33, 4148.13, 7271.78, 4249.83, 4701.87, 0.000, 0.000, 0.000, 21:34:01.217, 1559846041217
238, -3492.39, 4377.95, 4516.89, 7950.56, 4147.50, 7266.37, 4251.88, 4701.64, 0.000, 0.000, 0.000, 21:34:01.217, 1559846041217
239, -3491.45, 4379.06, 4514.78, 7950.52, 4149.96, 7266.31, 4252.84, 4699.34, 0.000, 0.000, 0.000, 21:34:01.217, 1559846041217
240, -3492.33, 4378.71, 4513.91, 7956.01, 4148.22, 7270.53, 4251.10, 4703.10, 0.000, 0.000, 0.000, 21:34:01.218, 1559846041218
241, -3491.88, 4378.33, 4513.17, 7959.57, 4146.87, 7273.55, 4249.67, 4701.09, 0.000, 0.000, 0.000, 21:34:01.663, 1559846041663
242, -3490.20, 4378.66, 4513.98, 7956.44, 4147.01, 7271.16, 4253.02, 4702.45, 0.000, 0.000, 0.000, 21:34:01.663, 1559846041663
243, -3489.60, 4380.34, 4514.00, 7950.49, 4148.80, 7265.48, 4253.96, 4700.42, 0.000, 0.000, 0.000, 21:34:01.663, 1559846041663
244, -3491.66, 4380.34, 4512.21, 7950.69, 4148.15, 7265.88, 4253.13, 4700.28, 0.000, 0.000, 0.000, 21:34:01.664, 1559846041664
245, -3490.81, 4376.74, 4513.78, 7956.55, 4148.08, 7271.78, 4251.50, 4702.47, 0.010, -0.030, 1.016, 21:34:01.664, 1559846041664
246, -3487.92, 4376.20, 4515.81, 7959.48, 4148.15, 7274.35, 4249.69, 4702.83, 0.000, 0.000, 0.000, 21:34:01.664, 1559846041664
247, -3490.07, 4377.61, 4516.01, 7955.52, 4148.80, 7271.27, 4250.63, 4701.38, 0.000, 0.000, 0.000, 21:34:01.664, 1559846041664
248, -3489.38, 4377.54, 4515.28, 7950.47, 4147.92, 7266.17, 4252.06, 4700.44, 0.000, 0.000, 0.000, 21:34:01.664, 1559846041664
249, -3491.14, 4379.58, 4517.13, 7951.43, 4148.33, 7266.84, 4251.73, 4703.54, 0.000, 0.000, 0.000, 21:34:01.664, 1559846041664
250, -3491.66, 4375.40, 4514.23, 7955.86, 4145.09, 7270.73, 4250.50, 4703.32, 0.000, 0.000, 0.000, 21:34:01.664, 1559846041664
251, -3491.66, 4375.26, 4514.38, 7959.70, 4146.16, 7274.02, 4250.92, 4702.00, 0.000, 0.000, 0.000, 21:34:01.664, 1559846041664
252, -3494.38, 4377.43, 4513.82, 7956.57, 4149.31, 7272.05, 4251.97, 4702.43, 0.000, 0.000, 0.000, 21:34:01.664, 1559846041664
253, -3492.33, 4379.09, 4513.15, 7950.72, 4148.57, 7266.60, 4254.27, 4702.83, 0.000, 0.000, 0.000, 21:34:01.665, 1559846041665
254, -3490.02, 4379.85, 4514.00, 7950.31, 4149.98, 7266.13, 4254.03, 4701.82, 0.000, 0.000, 0.000, 21:34:01.665, 1559846041665
255, -3491.36, 4376.56, 4513.55, 7955.21, 4147.99, 7271.00, 4251.39, 4700.12, 0.008, -0.028, 1.024, 21:34:01.665, 1559846041665
0, -3491.54, 4375.26, 4512.91, 7958.90, 4147.05, 7274.62, 4251.21, 4701.56, 0.000, 0.000, 0.000, 21:34:01.665, 1559846041665
1, -3491.83, 4375.67, 4513.80, 7955.68, 4146.34, 7271.72, 4252.15, 4702.38, 0.000, 0.000, 0.000, 21:34:01.665, 1559846041665
2, -3491.81, 4378.35, 4513.98, 7950.43, 4150.58, 7267.13, 4254.32, 4702.11, 0.000, 0.000, 0.000, 21:34:01.665, 1559846041665
3, -3493.35, 4379.78, 4513.85, 7949.24, 4150.14, 7266.44, 4252.22, 4700.28, 0.000, 0.000, 0.000, 21:34:01.665, 1559846041665
4, -3493.26, 4378.46, 4515.07, 7954.74, 4147.77, 7271.47, 4249.60, 4700.48, 0.000, 0.000, 0.000, 21:34:01.665, 1559846041665
5, -3494.25, 4377.01, 4515.34, 7959.21, 4146.61, 7275.02, 4249.92, 4702.34, 0.000, 0.000, 0.000, 21:34:01.665, 1559846041665
6, -3491.48, 4375.67, 4515.23, 7956.26, 4148.39, 7272.50, 4252.02, 4703.48, 0.000, 0.000, 0.000, 21:34:01.666, 1559846041666
7, -3490.38, 4376.83, 4516.08, 7949.82, 4149.27, 7267.02, 4255.86, 4701.87, 0.000, 0.000, 0.000, 21:34:01.666, 1559846041666
8, -3492.17, 4377.83, 4514.69, 7949.89, 4150.56, 7266.75, 4251.53, 4701.62, 0.010, -0.032, 1.024, 21:34:01.666, 1559846041666
9, -3491.05, 4376.54, 4514.16, 7954.56, 4148.82, 7270.89, 4250.16, 4702.43, 0.000, 0.000, 0.000, 21:34:01.666, 1559846041666
10, -3490.09, 4376.45, 4514.23, 7959.19, 4146.14, 7274.67, 4250.50, 4700.26, 0.000, 0.000, 0.000, 21:34:01.666, 1559846041666
11, -3489.31, 4376.76, 4514.34, 7956.77, 4148.01, 7272.81, 4252.87, 4701.91, 0.000, 0.000, 0.000, 21:34:01.666, 1559846041666
12, -3490.16, 4376.76, 4515.41, 7950.83, 4148.91, 7266.71, 4252.13, 4702.05, 0.000, 0.000, 0.000, 21:34:01.666, 1559846041666
13, -3489.67, 4376.81, 4513.40, 7950.36, 4149.53, 7266.64, 4251.68, 4701.96, 0.000, 0.000, 0.000, 21:34:01.667, 1559846041667
14, -3487.34, 4376.52, 4513.67, 7954.63, 4148.06, 7271.45, 4252.40, 4701.71, 0.000, 0.000, 0.000, 21:34:01.667, 1559846041667
15, -3488.91, 4375.38, 4512.84, 7957.85, 4147.88, 7274.11, 4251.88, 4702.83, 0.000, 0.000, 0.000, 21:34:01.667, 1559846041667
16, -3490.60, 4376.05, 4515.34, 7955.28, 4149.56, 7271.60, 4251.95, 4704.39, 0.000, 0.000, 0.000, 21:34:01.667, 1559846041667
17, -3489.80, 4378.44, 4515.70, 7950.31, 4148.77, 7267.18, 4253.20, 4703.83, 0.000, 0.000, 0.000, 21:34:01.667, 1559846041667
18, -3491.34, 4377.43, 4515.68, 7949.98, 4149.29, 7266.98, 4251.21, 4702.43, 0.010, -0.032, 1.024, 21:34:01.668, 1559846041668
19, -3491.30, 4378.08, 4513.33, 7954.87, 4147.01, 7271.31, 4251.32, 4701.64, 0.000, 0.000, 0.000, 21:34:01.668, 1559846041668
20, -3489.87, 4377.28, 4513.40, 7958.79, 4146.32, 7274.87, 4251.68, 4700.84, 0.000, 0.000, 0.000, 21:34:01.669, 1559846041669
21, -3490.11, 4376.54, 4514.45, 7955.34, 4148.01, 7271.58, 4252.22, 4700.42, 0.000, 0.000, 0.000, 21:34:01.669, 1559846041669
22, -3488.46, 4377.50, 4515.05, 7949.53, 4150.41, 7266.08, 4253.13, 4701.06, 0.000, 0.000, 0.000, 21:34:01.669, 1559846041669
23, -3487.14, 4379.71, 4515.75, 7949.11, 4149.62, 7265.97, 4253.16, 4701.94, 0.000, 0.000, 0.000, 21:34:01.669, 1559846041669
24, -3488.08, 4378.42, 4514.94, 7955.12, 4146.02, 7271.51, 4250.94, 4703.05, 0.000, 0.000, 0.000, 21:34:01.669, 1559846041669
25, -3490.07, 4374.82, 4513.40, 7959.50, 4146.90, 7275.29, 4249.92, 4702.31, 0.000, 0.000, 0.000, 21:34:01.669, 1559846041669
26, -3490.29, 4376.67, 4513.17, 7956.06, 4146.20, 7272.18, 4251.66, 4701.64, 0.000, 0.000, 0.000, 21:34:01.670, 1559846041670
27, -3491.43, 4379.02, 4514.18, 7950.43, 4146.83, 7266.69, 4252.51, 4700.97, 0.000, 0.000, 0.000, 21:34:01.670, 1559846041670
28, -3490.90, 4379.06, 4514.92, 7950.20, 4148.04, 7266.64, 4252.49, 4700.80, 0.008, -0.034, 1.020, 21:34:01.670, 1559846041670
29, -3489.35, 4378.01, 4514.23, 7955.16, 4148.13, 7271.07, 4251.17, 4702.81, 0.000, 0.000, 0.000, 21:34:01.670, 1559846041670
30, -3490.29, 4377.39, 4513.69, 7959.70, 4146.47, 7275.25, 4249.80, 4702.45, 0.000, 0.000, 0.000, 21:34:01.670, 1559846041670
31, -3493.11, 4378.62, 4513.73, 7955.75, 4148.66, 7271.67, 4252.17, 4700.71, 0.000, 0.000, 0.000, 21:34:01.671, 1559846041671
32, -3494.00, 4381.32, 4514.72, 7949.87, 4149.47, 7266.02, 4252.98, 4700.71, 0.000, 0.000, 0.000, 21:34:01.671, 1559846041671
33, -3493.18, 4379.33, 4514.69, 7950.05, 4149.91, 7266.80, 4252.49, 4701.76, 0.000, 0.000, 0.000, 21:34:01.671, 1559846041671
34, -3490.45, 4377.01, 4512.73, 7955.05, 4146.76, 7271.27, 4251.01, 4703.10, 0.000, 0.000, 0.000, 21:34:01.671, 1559846041671
35, -3488.03, 4375.89, 4512.10, 7959.30, 4146.87, 7275.07, 4251.79, 4703.61, 0.000, 0.000, 0.000, 21:34:01.672, 1559846041672
36, -3490.14, 4378.44, 4515.16, 7956.75, 4149.58, 7272.92, 4251.61, 4702.43, 0.000, 0.000, 0.000, 21:34:01.672, 1559846041672
37, -3490.65, 4379.58, 4516.84, 7951.05, 4150.81, 7268.59, 4252.06, 4702.90, 0.000, 0.000, 0.000, 21:34:01.672, 1559846041672
38, -3490.00, 4377.46, 4515.28, 7949.24, 4149.33, 7266.42, 4250.88, 4701.69, 0.002, -0.026, 1.020, 21:34:01.672, 1559846041672
39, -3488.79, 4377.16, 4513.96, 7954.52, 4148.24, 7270.80, 4249.36, 4701.31, 0.000, 0.000, 0.000, 21:34:01.672, 1559846041672
40, -3491.95, 4378.48, 4515.25, 7958.58, 4147.97, 7274.78, 4250.72, 4700.86, 0.000, 0.000, 0.000, 21:34:01.672, 1559846041672
41, -3491.79, 4378.89, 4514.49, 7956.46, 4150.63, 7272.10, 4253.09, 4702.87, 0.000, 0.000, 0.000, 21:34:01.672, 1559846041672
42, -3488.01, 4377.63, 4514.78, 7949.64, 4151.48, 7266.64, 4251.17, 4703.34, 0.000, 0.000, 0.000, 21:34:01.673, 1559846041673
43, -3488.57, 4378.55, 4514.78, 7949.60, 4149.96, 7267.07, 4252.71, 4703.88, 0.000, 0.000, 0.000, 21:34:01.673, 1559846041673
44, -3490.40, 4377.59, 4512.77, 7955.01, 4147.57, 7271.78, 4250.92, 4705.02, 0.000, 0.000, 0.000, 21:34:01.673, 1559846041673
45, -3491.03, 4374.62, 4512.44, 7958.85, 4148.04, 7274.62, 4249.76, 4702.61, 0.000, 0.000, 0.000, 21:34:01.673, 1559846041673
46, -3491.99, 4375.64, 4512.50, 7955.66, 4147.52, 7271.87, 4250.97, 4702.99, 0.000, 0.000, 0.000, 21:34:01.673, 1559846041673
47, -3491.03, 4377.86, 4514.78, 7950.56, 4150.74, 7267.13, 4252.82, 4704.55, 0.000, 0.000, 0.000, 21:34:01.673, 1559846041673
48, -3489.40, 4376.63, 4514.76, 7949.60, 4150.20, 7266.40, 4254.30, 4701.44, 0.010, -0.028, 1.022, 21:34:01.673, 1559846041673
49, -3490.31, 4376.45, 4513.98, 7953.73, 4148.68, 7270.15, 4254.10, 4701.22, 0.000, 0.000, 0.000, 21:34:01.674, 1559846041674
50, -3492.88, 4376.63, 4512.57, 7958.07, 4148.22, 7274.73, 4252.69, 4702.16, 0.000, 0.000, 0.000, 21:34:01.674, 1559846041674
51, -3493.00, 4377.10, 4514.14, 7956.80, 4148.15, 7273.64, 4250.83, 4703.21, 0.000, 0.000, 0.000, 21:34:01.674, 1559846041674
52, -3490.81, 4378.01, 4515.14, 7951.21, 4151.03, 7268.25, 4251.84, 4702.94, 0.000, 0.000, 0.000, 21:34:01.674, 1559846041674
53, -3489.82, 4378.08, 4513.31, 7949.17, 4151.95, 7265.79, 4250.99, 4700.21, 0.000, 0.000, 0.000, 21:34:01.674, 1559846041674
54, -3489.20, 4378.62, 4512.62, 7953.71, 4149.51, 7269.86, 4252.40, 4699.97, 0.000, 0.000, 0.000, 21:34:01.674, 1559846041674
55, -3490.14, 4378.64, 4513.58, 7959.12, 4146.45, 7274.35, 4252.82, 4701.13, 0.000, 0.000, 0.000, 21:34:01.674, 1559846041674
56, -3492.39, 4379.47, 4514.09, 7956.44, 4148.48, 7272.65, 4252.75, 4701.00, 0.000, 0.000, 0.000, 21:34:01.675, 1559846041675
57, -3490.98, 4379.56, 4514.52, 7950.78, 4148.68, 7267.42, 4252.67, 4701.53, 0.000, 0.000, 0.000, 21:34:01.675, 1559846041675
58, -3489.49, 4378.15, 4517.42, 7948.86, 4147.88, 7266.62, 4253.69, 4699.81, 0.008, -0.034, 1.024, 21:34:01.675, 1559846041675
59, -3491.99, 4378.17, 4516.57, 7954.58, 4146.83, 7271.45, 4251.82, 4701.33, 0.000, 0.000, 0.000, 21:34:01.675, 1559846041675
60, -3489.13, 4375.71, 4514.81, 7958.94, 4145.78, 7274.91, 4252.69, 4702.09, 0.000, 0.000, 0.000, 21:34:01.675, 1559846041675
61, -3489.58, 4376.49, 4513.89, 7955.61, 4147.63, 7271.63, 4252.29, 4702.02, 0.000, 0.000, 0.000, 21:34:01.675, 1559846041675
62, -3491.07, 4378.68, 4513.11, 7950.16, 4149.02, 7266.91, 4252.87, 4702.38, 0.000, 0.000, 0.000, 21:34:01.675, 1559846041675
63, -3491.39, 4379.13, 4513.49, 7949.60, 4148.68, 7266.53, 4251.35, 4702.72, 0.000, 0.000, 0.000, 21:34:01.676, 1559846041676
64, -3489.46, 4375.73, 4514.69, 7954.31, 4146.94, 7270.66, 4250.43, 4700.82, 0.000, 0.000, 0.000, 21:34:01.676, 1559846041676
65, -3491.14, 4376.85, 4513.24, 7958.88, 4145.04, 7274.31, 4251.21, 4701.09, 0.000, 0.000, 0.000, 21:34:01.676, 1559846041676
66, -3492.50, 4379.06, 4513.31, 7956.24, 4148.06, 7272.56, 4252.55, 4700.82, 0.000, 0.000, 0.000, 21:34:01.676, 1559846041676
67, -3490.58, 4379.47, 4517.24, 7950.49, 4150.25, 7267.62, 4253.87, 4701.22, 0.000, 0.000, 0.000, 21:34:01.676, 1559846041676
68, -3490.31, 4379.11, 4516.50, 7948.50, 4149.22, 7266.31, 4253.11, 4700.04, 0.006, -0.034, 1.022, 21:34:01.676, 1559846041676
69, -3492.33, 4375.38, 4513.00, 7953.62, 4145.73, 7270.17, 4252.60, 4701.69, 0.000, 0.000, 0.000, 21:34:01.676, 1559846041676
70, -3489.93, 4375.11, 4512.33, 7958.36, 4145.67, 7274.24, 4251.77, 4701.67, 0.000, 0.000, 0.000, 21:34:01.676, 1559846041676
71, -3489.44, 4378.17, 4514.60, 7955.21, 4147.05, 7271.54, 4251.55, 4702.47, 0.000, 0.000, 0.000, 21:34:01.677, 1559846041677
72, -3492.59, 4377.92, 4514.72, 7949.64, 4147.66, 7266.66, 4252.93, 4700.82, 0.000, 0.000, 0.000, 21:34:01.677, 1559846041677
73, -3491.81, 4376.56, 4513.58, 7948.79, 4149.11, 7265.95, 4252.20, 4700.62, 0.000, 0.000, 0.000, 21:34:01.677, 1559846041677
74, -3488.97, 4377.99, 4512.57, 7954.05, 4147.92, 7270.66, 4252.91, 4701.58, 0.000, 0.000, 0.000, 21:34:01.677, 1559846041677
75, -3491.32, 4378.13, 4512.79, 7959.14, 4148.46, 7275.11, 4251.88, 4702.11, 0.000, 0.000, 0.000, 21:34:01.677, 1559846041677
76, -3491.54, 4377.68, 4514.99, 7956.28, 4148.68, 7272.65, 4253.22, 4701.67, 0.000, 0.000, 0.000, 21:34:01.677, 1559846041677
77, -3491.43, 4379.98, 4515.66, 7949.87, 4149.91, 7266.80, 4254.48, 4702.76, 0.000, 0.000, 0.000, 21:34:01.677, 1559846041677
78, -3490.43, 4378.75, 4516.21, 7948.73, 4151.57, 7265.61, 4253.85, 4701.11, 0.006, -0.028, 1.018, 21:34:01.678, 1559846041678
79, -3488.53, 4376.49, 4512.06, 7953.62, 4148.98, 7269.55, 4252.93, 4702.43, 0.000, 0.000, 0.000, 21:34:01.678, 1559846041678
80, -3491.30, 4377.43, 4511.99, 7958.34, 4145.09, 7274.00, 4252.62, 4702.45, 0.000, 0.000, 0.000, 21:34:01.678, 1559846041678
81, -3490.49, 4378.55, 4513.64, 7956.44, 4146.07, 7273.03, 4252.62, 4702.16, 0.000, 0.000, 0.000, 21:34:01.679, 1559846041679
82, -3491.34, 4378.73, 4514.74, 7950.92, 4149.71, 7267.89, 4252.55, 4700.17, 0.000, 0.000, 0.000, 21:34:01.680, 1559846041680
83, -3491.39, 4379.29, 4515.88, 7949.11, 4148.42, 7267.02, 4253.69, 4699.52, 0.000, 0.000, 0.000, 21:34:01.680, 1559846041680
84, -3490.14, 4378.01, 4514.69, 7953.33, 4145.67, 7270.60, 4253.60, 4701.33, 0.000, 0.000, 0.000, 21:34:01.680, 1559846041680
85, -3488.64, 4377.97, 4513.31, 7957.80, 4146.43, 7274.35, 4249.27, 4702.52, 0.000, 0.000, 0.000, 21:34:01.680, 1559846041680
86, -3490.94, 4379.56, 4513.26, 7956.04, 4149.24, 7272.01, 4252.17, 4702.09, 0.000, 0.000, 0.000, 21:34:01.680, 1559846041680
87, -3492.50, 4379.80, 4514.52, 7949.82, 4149.58, 7266.91, 4254.86, 4700.26, 0.000, 0.000, 0.000, 21:34:01.680, 1559846041680
88, -3491.61, 4377.70, 4514.54, 7947.90, 4148.91, 7264.83, 4253.85, 4701.04, 0.006, -0.030, 1.018, 21:34:01.681, 1559846041681
89, -3489.84, 4378.17, 4513.96, 7953.40, 4147.99, 7270.06, 4253.22, 4701.31, 0.000, 0.000, 0.000, 21:34:01.681, 1559846041681
90, -3490.78, 4376.76, 4513.17, 7958.70, 4146.25, 7274.73, 4251.32, 4702.54, 0.000, 0.000, 0.000, 21:34:01.681, 1559846041681
91, -3491.61, 4376.05, 4512.73, 7955.90, 4150.47, 7271.80, 4252.06, 4701.49, 0.000, 0.000, 0.000, 21:34:01.681, 1559846041681
92, -3492.50, 4379.80, 4512.68, 7949.67, 4149.00, 7266.40, 4251.66, 4699.97, 0.000, 0.000, 0.000, 21:34:01.681, 1559846041681
93, -3492.97, 4380.58, 4513.64, 7947.50, 4149.60, 7265.46, 4252.82, 4701.94, 0.000, 0.000, 0.000, 21:34:01.681, 1559846041681
94, -3492.04, 4378.24, 4514.72, 7952.71, 4150.34, 7269.44, 4252.44, 4702.38, 0.000, 0.000, 0.000, 21:34:01.681, 1559846041681
95, -3490.02, 4375.87, 4512.88, 7957.60, 4147.34, 7273.95, 4251.93, 4701.11, 0.000, 0.000, 0.000, 21:34:01.681, 1559846041681
96, -3488.93, 4376.20, 4512.86, 7956.06, 4148.84, 7272.99, 4252.84, 4701.64, 0.000, 0.000, 0.000, 21:34:01.682, 1559846041682
97, -3488.46, 4380.45, 4514.29, 7950.54, 4149.65, 7267.58, 4255.08, 4699.72, 0.000, 0.000, 0.000, 21:34:01.682, 1559846041682
98, -3489.82, 4380.00, 4513.87, 7948.01, 4149.67, 7265.08, 4254.45, 4700.06, 0.010, -0.030, 1.020, 21:34:01.682, 1559846041682
99, -3491.14, 4377.95, 4511.79, 7953.00, 4147.92, 7269.59, 4254.10, 4701.22, 0.000, 0.000, 0.000, 21:34:01.682, 1559846041682
100, -3489.06, 4376.83, 4511.99, 7957.31, 4146.47, 7274.40, 4251.44, 4703.46, 0.000, 0.000, 0.000, 21:34:01.682, 1559846041682
101, -3490.27, 4377.23, 4512.55, 7954.56, 4145.29, 7271.76, 4250.14, 4702.16, 0.000, 0.000, 0.000, 21:34:01.682, 1559846041682
102, -3492.08, 4378.84, 4512.62, 7949.35, 4148.13, 7267.31, 4251.46, 4701.20, 0.000, 0.000, 0.000, 21:34:01.682, 1559846041682
103, -3492.86, 4378.06, 4514.23, 7947.07, 4147.90, 7265.90, 4251.70, 4699.07, 0.000, 0.000, 0.000, 21:34:01.682, 1559846041682
104, -3489.89, 4378.21, 4512.88, 7951.77, 4145.91, 7269.97, 4251.46, 4701.15, 0.000, 0.000, 0.000, 21:34:01.682, 1559846041682
105, -3489.98, 4378.64, 4512.73, 7957.62, 4145.87, 7274.44, 4251.59, 4703.57, 0.000, 0.000, 0.000, 21:34:01.682, 1559846041682
106, -3489.38, 4377.16, 4513.58, 7955.19, 4147.50, 7272.21, 4252.64, 4701.85, 0.000, 0.000, 0.000, 21:34:02.138, 1559846042138
107, -3490.69, 4376.67, 4513.96, 7949.11, 4147.12, 7267.02, 4252.37, 4699.70, 0.000, 0.000, 0.000, 21:34:02.139, 1559846042139
108, -3491.70, 4381.10, 4514.99, 7947.59, 4148.68, 7265.21, 4252.26, 4700.97, 0.014, -0.026, 1.020, 21:34:02.139, 1559846042139
109, -3490.85, 4379.78, 4513.55, 7951.99, 4148.84, 7269.66, 4251.61, 4701.18, 0.000, 0.000, 0.000, 21:34:02.139, 1559846042139
110, -3490.58, 4379.47, 4512.06, 7957.11, 4147.46, 7274.38, 4251.12, 4700.42, 0.000, 0.000, 0.000, 21:34:02.139, 1559846042139
111, -3489.53, 4379.33, 4511.88, 7954.63, 4146.20, 7272.23, 4252.60, 4701.26, 0.000, 0.000, 0.000, 21:34:02.139, 1559846042139
112, -3489.35, 4378.13, 4514.65, 7949.04, 4147.12, 7267.00, 4253.29, 4701.76, 0.000, 0.000, 0.000, 21:34:02.139, 1559846042139
113, -3491.52, 4378.01, 4514.02, 7947.52, 4148.19, 7265.70, 4252.20, 4700.73, 0.000, 0.000, 0.000, 21:34:02.139, 1559846042139
114, -3492.44, 4376.72, 4512.50, 7952.44, 4147.48, 7269.97, 4252.26, 4701.58, 0.000, 0.000, 0.000, 21:34:02.140, 1559846042140
115, -3491.50, 4376.23, 4513.35, 7957.20, 4145.89, 7273.79, 4251.88, 4701.89, 0.000, 0.000, 0.000, 21:34:02.140, 1559846042140
116, -3492.28, 4378.80, 4514.23, 7955.23, 4147.57, 7271.98, 4252.11, 4701.78, 0.000, 0.000, 0.000, 21:34:02.140, 1559846042140
117, -3491.99, 4379.42, 4513.06, 7949.49, 4148.95, 7266.78, 4251.79, 4700.84, 0.000, 0.000, 0.000, 21:34:02.140, 1559846042140
118, -3492.48, 4377.52, 4513.02, 7947.12, 4147.90, 7265.03, 4254.45, 4699.68, 0.008, -0.028, 1.012, 21:34:02.140, 1559846042140
119, -3489.82, 4378.24, 4512.77, 7952.44, 4147.59, 7269.77, 4252.11, 4702.49, 0.000, 0.000, 0.000, 21:34:02.141, 1559846042141
120, -3490.20, 4377.01, 4511.52, 7957.35, 4146.00, 7274.08, 4252.51, 4701.67, 0.000, 0.000, 0.000, 21:34:02.141, 1559846042141
121, -3492.28, 4377.63, 4511.79, 7955.34, 4148.10, 7272.74, 4253.02, 4700.50, 0.000, 0.000, 0.000, 21:34:02.141, 1559846042141
122, -3490.96, 4380.63, 4513.44, 7948.95, 4149.58, 7267.22, 4253.34, 4700.64, 0.000, 0.000, 0.000, 21:34:02.141, 1559846042141
123, -3489.91, 4380.27, 4513.91, 7947.14, 4148.33, 7265.12, 4252.13, 4700.86, 0.000, 0.000, 0.000, 21:34:02.141, 1559846042141
124, -3491.83, 4378.10, 4511.95, 7951.21, 4145.85, 7269.08, 4252.82, 4701.76, 0.000, 0.000, 0.000, 21:34:02.141, 1559846042141
125, -3490.00, 4378.80, 4512.84, 7956.75, 4146.00, 7273.97, 4253.43, 4702.34, 0.000, 0.000, 0.000, 21:34:02.141, 1559846042141
126, -3490.98, 4378.30, 4514.00, 7954.96, 4146.56, 7272.27, 4254.27, 4702.02, 0.000, 0.000, 0.000, 21:34:02.142, 1559846042142
127, -3491.70, 4378.77, 4513.13, 7949.06, 4148.06, 7266.69, 4254.68, 4701.24, 0.012, -0.030, 1.018, 21:34:02.142, 1559846042142
128, -3488.91, 4379.00, 4515.16, 7947.07, 4147.37, 7265.17, 4253.51, 4701.11, 0.000, 0.000, 0.000, 21:34:02.147, 1559846042147
129, -3490.14, 4376.87, 4513.58, 7951.77, 4146.74, 7269.64, 4253.04, 4701.53, 0.000, 0.000, 0.000, 21:34:02.147, 1559846042147
130, -3491.99, 4376.25, 4513.40, 7956.42, 4146.72, 7273.82, 4252.33, 4702.85, 0.000, 0.000, 0.000, 21:34:02.148, 1559846042148
131, -3492.33, 4379.33, 4514.31, 7954.34, 4146.54, 7271.65, 4252.62, 4701.64, 0.000, 0.000, 0.000, 21:34:02.148, 1559846042148
132, -3493.18, 4379.00, 4514.07, 7948.17, 4146.45, 7265.79, 4252.29, 4699.19, 0.000, 0.000, 0.000, 21:34:02.148, 1559846042148
133, -3491.61, 4378.51, 4512.33, 7946.45, 4146.43, 7264.52, 4253.18, 4699.03, 0.000, 0.000, 0.000, 21:34:02.148, 1559846042148
134, -3490.81, 4380.18, 4510.85, 7951.54, 4146.47, 7269.52, 4252.02, 4702.87, 0.000, 0.000, 0.000, 21:34:02.148, 1559846042148
135, -3491.66, 4378.97, 4512.19, 7956.62, 4146.05, 7274.26, 4250.03, 4703.05, 0.000, 0.000, 0.000, 21:34:02.148, 1559846042148
136, -3491.72, 4378.57, 4513.58, 7955.19, 4145.11, 7273.23, 4252.49, 4701.22, 0.000, 0.000, 0.000, 21:34:02.149, 1559846042149
137, -3491.12, 4376.47, 4514.47, 7948.75, 4148.13, 7267.49, 4253.78, 4700.97, 0.010, -0.030, 1.010, 21:34:02.149, 1559846042149
138, -3490.58, 4376.49, 4515.57, 7946.80, 4149.78, 7266.46, 4252.40, 4701.22, 0.000, 0.000, 0.000, 21:34:02.149, 1559846042149
139, -3492.33, 4376.11, 4513.49, 7950.83, 4147.97, 7269.12, 4252.40, 4700.28, 0.000, 0.000, 0.000, 21:34:02.149, 1559846042149
140, -3492.82, 4376.72, 4511.92, 7956.17, 4146.02, 7273.32, 4251.66, 4701.13, 0.000, 0.000, 0.000, 21:34:02.149, 1559846042149
141, -3490.36, 4377.01, 4512.01, 7954.74, 4146.02, 7272.14, 4252.46, 4701.20, 0.000, 0.000, 0.000, 21:34:02.149, 1559846042149
142, -3488.57, 4378.77, 4514.18, 7948.48, 4150.00, 7266.53, 4252.67, 4702.76, 0.000, 0.000, 0.000, 21:34:02.149, 1559846042149
143, -3491.25, 4378.80, 4514.69, 7946.58, 4148.95, 7265.28, 4250.94, 4701.80, 0.000, 0.000, 0.000, 21:34:02.149, 1559846042149
144, -3488.59, 4377.34, 4513.98, 7950.31, 4147.34, 7268.83, 4251.15, 4700.93, 0.000, 0.000, 0.000, 21:34:02.149, 1559846042149
145, -3491.63, 4377.90, 4513.22, 7956.24, 4147.88, 7273.79, 4250.81, 4702.92, 0.000, 0.000, 0.000, 21:34:02.150, 1559846042150
146, -3490.29, 4378.71, 4513.91, 7954.54, 4147.10, 7272.16, 4250.92, 4703.97, 0.000, 0.000, 0.000, 21:34:02.150, 1559846042150
147, -3492.33, 4378.35, 4515.43, 7948.59, 4149.47, 7266.35, 4252.33, 4702.67, 0.008, -0.028, 1.014, 21:34:02.150, 1559846042150
148, -3492.24, 4378.57, 4514.36, 7947.07, 4148.55, 7265.12, 4254.07, 4701.02, 0.000, 0.000, 0.000, 21:34:02.150, 1559846042150
149, -3490.76, 4377.50, 4511.61, 7951.14, 4146.16, 7268.63, 4254.21, 4700.95, 0.000, 0.000, 0.000, 21:34:02.150, 1559846042150
150, -3493.11, 4377.39, 4511.30, 7956.64, 4145.82, 7273.75, 4253.78, 4701.91, 0.000, 0.000, 0.000, 21:34:02.150, 1559846042150
151, -3492.39, 4378.82, 4511.39, 7954.27, 4146.05, 7272.10, 4253.76, 4701.60, 0.000, 0.000, 0.000, 21:34:02.151, 1559846042151
152, -3491.36, 4378.62, 4512.44, 7948.28, 4147.92, 7266.62, 4253.87, 4701.87, 0.000, 0.000, 0.000, 21:34:02.151, 1559846042151
153, -3492.71, 4380.25, 4514.69, 7947.14, 4148.84, 7265.26, 4254.72, 4701.53, 0.000, 0.000, 0.000, 21:34:02.151, 1559846042151
154, -3491.19, 4379.78, 4512.84, 7952.50, 4150.41, 7270.08, 4253.18, 4700.82, 0.000, 0.000, 0.000, 21:34:02.151, 1559846042151
155, -3490.05, 4379.27, 4513.62, 7958.58, 4146.43, 7275.22, 4251.70, 4702.40, 0.000, 0.000, 0.000, 21:34:02.152, 1559846042152
156, -3490.76, 4377.88, 4514.85, 7956.86, 4145.65, 7273.86, 4253.00, 4701.71, 0.000, 0.000, 0.000, 21:34:02.152, 1559846042152
157, -3491.32, 4379.40, 4515.05, 7950.36, 4148.46, 7268.43, 4253.36, 4701.98, 0.006, -0.030, 1.016, 21:34:02.152, 1559846042152
158, -3490.81, 4380.47, 4514.96, 7948.30, 4149.31, 7266.48, 4253.31, 4703.08, 0.000, 0.000, 0.000, 21:34:02.152, 1559846042152
159, -3491.32, 4379.24, 4511.72, 7953.29, 4148.51, 7271.42, 4254.10, 4702.65, 0.000, 0.000, 0.000, 21:34:02.152, 1559846042152
160, -3493.38, 4377.61, 4511.01, 7959.43, 4148.22, 7277.48, 4252.55, 4701.80, 0.000, 0.000, 0.000, 21:34:02.152, 1559846042152
161, -3491.45, 4376.38, 4512.12, 7958.14, 4146.67, 7275.67, 4252.08, 4702.47, 0.000, 0.000, 0.000, 21:34:02.153, 1559846042153
162, -3489.80, 4379.40, 4512.53, 7951.72, 4147.05, 7269.52, 4252.33, 4703.03, 0.000, 0.000, 0.000, 21:34:02.153, 1559846042153
163, -3490.63, 4379.56, 4514.76, 7949.78, 4147.77, 7268.43, 4252.51, 4702.76, 0.000, 0.000, 0.000, 21:34:02.153, 1559846042153
164, -3491.41, 4378.46, 4514.74, 7954.90, 4146.52, 7272.83, 4251.99, 4703.16, 0.000, 0.000, 0.000, 21:34:02.153, 1559846042153
165, -3490.20, 4377.68, 4512.62, 7960.44, 4146.78, 7277.97, 4251.01, 4701.89, 0.000, 0.000, 0.000, 21:34:02.153, 1559846042153
166, -3490.16, 4377.79, 4512.95, 7958.38, 4148.51, 7275.69, 4250.70, 4702.47, 0.000, 0.000, 0.000, 21:34:02.153, 1559846042153
167, -3491.21, 4380.03, 4514.74, 7951.54, 4149.02, 7269.99, 4252.40, 4701.58, 0.010, -0.030, 1.010, 21:34:02.154, 1559846042154
168, -3492.33, 4380.52, 4513.67, 7949.69, 4147.12, 7268.45, 4253.45, 4701.22, 0.000, 0.000, 0.000, 21:34:02.154, 1559846042154
169, -3491.16, 4378.21, 4513.26, 7953.89, 4147.10, 7272.94, 4251.79, 4700.88, 0.000, 0.000, 0.000, 21:34:02.154, 1559846042154
170, -3490.14, 4376.54, 4514.36, 7959.50, 4146.29, 7278.11, 4251.39, 4701.76, 0.000, 0.000, 0.000, 21:34:02.154, 1559846042154
171, -3492.84, 4378.39, 4512.68, 7958.76, 4146.16, 7276.70, 4250.92, 4702.16, 0.000, 0.000, 0.000, 21:34:02.154, 1559846042154
172, -3492.01, 4379.82, 4513.17, 7952.73, 4149.60, 7271.33, 4253.00, 4702.20, 0.000, 0.000, 0.000, 21:34:02.154, 1559846042154
173, -3491.83, 4378.13, 4514.40, 7950.36, 4149.80, 7268.54, 4251.86, 4701.78, 0.000, 0.000, 0.000, 21:34:02.155, 1559846042155
174, -3492.59, 4376.45, 4512.10, 7954.34, 4148.35, 7271.89, 4252.49, 4702.36, 0.000, 0.000, 0.000, 21:34:02.155, 1559846042155
175, -3494.52, 4377.37, 4511.72, 7959.97, 4146.00, 7277.24, 4253.02, 4703.43, 0.000, 0.000, 0.000, 21:34:02.155, 1559846042155
176, -3490.31, 4377.68, 4513.09, 7958.07, 4146.11, 7276.34, 4254.14, 4703.39, 0.000, 0.000, 0.000, 21:34:02.155, 1559846042155
177, -3489.24, 4377.88, 4513.42, 7952.04, 4146.49, 7271.22, 4254.43, 4702.16, 0.014, -0.030, 1.014, 21:34:02.155, 1559846042155
178, -3491.19, 4378.28, 4515.19, 7950.20, 4147.79, 7269.37, 4252.69, 4703.95, 0.000, 0.000, 0.000, 21:34:02.155, 1559846042155
179, -3490.87, 4376.14, 4513.44, 7954.96, 4148.73, 7273.17, 4253.16, 4703.34, 0.000, 0.000, 0.000, 21:34:02.156, 1559846042156
180, -3491.39, 4378.06, 4513.85, 7961.00, 4145.89, 7278.71, 4252.22, 4703.21, 0.000, 0.000, 0.000, 21:34:02.156, 1559846042156
181, -3493.15, 4378.71, 4514.67, 7959.25, 4145.56, 7277.35, 4251.32, 4701.51, 0.000, 0.000, 0.000, 21:34:02.157, 1559846042157
182, -3494.61, 4380.00, 4513.89, 7953.73, 4149.24, 7272.45, 4252.04, 4700.75, 0.000, 0.000, 0.000, 21:34:02.157, 1559846042157
183, -3491.66, 4381.08, 4515.25, 7950.81, 4150.79, 7270.11, 4252.40, 4701.02, 0.000, 0.000, 0.000, 21:34:02.158, 1559846042158
184, -3491.14, 4379.00, 4515.16, 7954.74, 4148.44, 7273.82, 4251.75, 4701.02, 0.000, 0.000, 0.000, 21:34:02.158, 1559846042158
185, -3492.33, 4376.27, 4513.24, 7960.37, 4145.67, 7278.06, 4251.79, 4700.57, 0.000, 0.000, 0.000, 21:34:02.158, 1559846042158
186, -3491.86, 4376.61, 4515.95, 7958.96, 4147.28, 7277.15, 4252.15, 4700.91, 0.000, 0.000, 0.000, 21:34:02.158, 1559846042158
187, -3489.80, 4379.24, 4514.90, 7953.47, 4151.68, 7272.36, 4252.96, 4702.34, 0.014, -0.028, 1.014, 21:34:02.158, 1559846042158
188, -3492.53, 4379.60, 4513.78, 7950.60, 4151.37, 7268.81, 4254.23, 4701.89, 0.000, 0.000, 0.000, 21:34:02.158, 1559846042158
189, -3492.19, 4378.51, 4513.26, 7954.52, 4147.97, 7272.79, 4253.27, 4700.50, 0.000, 0.000, 0.000, 21:34:02.158, 1559846042158
190, -3492.10, 4378.53, 4514.02, 7960.77, 4146.85, 7278.35, 4252.29, 4701.76, 0.000, 0.000, 0.000, 21:34:02.158, 1559846042158
191, -3494.63, 4377.68, 4513.40, 7958.90, 4147.25, 7277.06, 4252.89, 4703.19, 0.000, 0.000, 0.000, 21:34:02.159, 1559846042159
192, -3493.73, 4378.55, 4513.91, 7952.62, 4148.91, 7271.42, 4254.32, 4702.43, 0.000, 0.000, 0.000, 21:34:02.159, 1559846042159
193, -3494.09, 4379.13, 4514.25, 7951.14, 4150.38, 7269.30, 4255.44, 4702.70, 0.000, 0.000, 0.000, 21:34:02.159, 1559846042159
194, -3492.12, 4378.33, 4514.16, 7955.77, 4148.51, 7273.46, 4253.76, 4703.54, 0.000, 0.000, 0.000, 21:34:02.159, 1559846042159
195, -3489.02, 4377.95, 4513.71, 7961.85, 4146.20, 7279.90, 4251.57, 4704.44, 0.000, 0.000, 0.000, 21:34:02.159, 1559846042159
196, -3490.18, 4375.96, 4513.31, 7959.88, 4148.66, 7278.02, 4251.84, 4703.75, 0.000, 0.000, 0.000, 21:34:02.159, 1559846042159
197, -3491.81, 4377.97, 4512.86, 7954.11, 4147.86, 7272.70, 4254.27, 4703.99, 0.018, -0.028, 1.016, 21:34:02.159, 1559846042159
198, -3491.86, 4379.67, 4513.35, 7951.21, 4148.82, 7270.24, 4254.23, 4703.21, 0.000, 0.000, 0.000, 21:34:02.159, 1559846042159
199, -3489.35, 4378.37, 4512.68, 7954.85, 4148.39, 7273.30, 4253.29, 4702.99, 0.000, 0.000, 0.000, 21:34:02.159, 1559846042159
200, -3489.98, 4377.61, 4512.37, 7960.77, 4147.72, 7278.78, 4251.35, 4701.49, 0.000, 0.000, 0.000, 21:34:02.160, 1559846042160
201, -3489.13, 4379.11, 4513.96, 7959.28, 4148.39, 7277.62, 4252.69, 4701.89, 0.000, 0.000, 0.000, 21:34:02.160, 1559846042160
202, -3488.57, 4379.62, 4515.10, 7952.62, 4148.68, 7271.98, 4252.73, 4701.89, 0.000, 0.000, 0.000, 21:34:02.160, 1559846042160
203, -3489.42, 4379.53, 4514.74, 7949.80, 4147.28, 7269.82, 4255.08, 4701.85, 0.000, 0.000, 0.000, 21:34:02.160, 1559846042160
204, -3489.46, 4380.14, 4514.72, 7954.74, 4146.18, 7274.38, 4253.40, 4702.27, 0.000, 0.000, 0.000, 21:34:02.160, 1559846042160
205, -3490.09, 4378.59, 4513.51, 7960.84, 4148.84, 7278.82, 4251.73, 4701.71, 0.000, 0.000, 0.000, 21:34:02.160, 1559846042160
206, -3491.21, 4378.93, 4511.72, 7959.14, 4148.22, 7277.17, 4251.35, 4700.68, 0.000, 0.000, 0.000, 21:34:02.160, 1559846042160
207, -3490.14, 4377.81, 4513.91, 7952.73, 4148.51, 7271.94, 4251.32, 4701.42, 0.016, -0.032, 1.020, 21:34:02.160, 1559846042160
208, -3490.65, 4375.38, 4513.80, 7949.51, 4148.15, 7269.57, 4252.29, 4701.15, 0.000, 0.000, 0.000, 21:34:02.160, 1559846042160
209, -3489.96, 4376.00, 4513.04, 7953.73, 4147.01, 7272.88, 4252.35, 4702.49, 0.000, 0.000, 0.000, 21:34:02.161, 1559846042161
210, -3488.91, 4376.34, 4511.77, 7959.23, 4146.72, 7278.02, 4251.06, 4702.65, 0.000, 0.000, 0.000, 21:34:02.161, 1559846042161
211, -3491.05, 4377.48, 4512.35, 7958.94, 4149.51, 7277.82, 4251.77, 4702.90, 0.000, 0.000, 0.000, 21:34:02.161, 1559846042161
212, -3491.92, 4377.46, 4512.62, 7952.97, 4149.11, 7272.74, 4254.21, 4701.42, 0.000, 0.000, 0.000, 21:34:02.162, 1559846042162
213, -3492.39, 4378.68, 4512.50, 7950.20, 4150.20, 7270.26, 4255.03, 4701.15, 0.000, 0.000, 0.000, 21:34:02.162, 1559846042162
214, -3489.24, 4379.51, 4513.33, 7954.16, 4149.49, 7273.88, 4252.24, 4703.16, 0.000, 0.000, 0.000, 21:34:02.162, 1559846042162
215, -3488.82, 4377.23, 4513.58, 7960.26, 4145.56, 7278.58, 4251.82, 4703.99, 0.000, 0.000, 0.000, 21:34:02.162, 1559846042162
216, -3488.46, 4377.83, 4512.84, 7958.96, 4146.40, 7277.37, 4253.31, 4703.03, 0.000, 0.000, 0.000, 21:34:02.162, 1559846042162
217, -3488.57, 4379.73, 4515.01, 7952.77, 4148.89, 7271.74, 4254.01, 4702.76, 0.010, -0.030, 1.016, 21:34:02.162, 1559846042162
218, -3492.80, 4380.14, 4514.87, 7949.76, 4150.34, 7269.39, 4253.45, 4702.18, 0.000, 0.000, 0.000, 21:34:02.163, 1559846042163
219, -3490.65, 4377.88, 4512.97, 7953.87, 4147.77, 7272.77, 4252.40, 4700.66, 0.000, 0.000, 0.000, 21:34:02.163, 1559846042163
220, -3490.74, 4378.01, 4513.13, 7959.59, 4147.23, 7277.86, 4251.17, 4702.87, 0.000, 0.000, 0.000, 21:34:02.163, 1559846042163
221, -3491.03, 4378.13, 4510.11, 7958.41, 4148.24, 7276.79, 4250.70, 4704.10, 0.000, 0.000, 0.000, 21:34:02.163, 1559846042163
222, -3490.20, 4378.55, 4513.42, 7952.37, 4147.70, 7271.29, 4253.00, 4701.85, 0.000, 0.000, 0.000, 21:34:02.164, 1559846042164
223, -3490.07, 4378.82, 4514.63, 7949.15, 4147.39, 7268.52, 4253.74, 4700.95, 0.000, 0.000, 0.000, 21:34:02.164, 1559846042164
224, -3490.96, 4378.37, 4514.16, 7953.26, 4147.79, 7271.78, 4253.72, 4701.78, 0.000, 0.000, 0.000, 21:34:02.164, 1559846042164
225, -3489.02, 4377.10, 4512.50, 7958.63, 4146.45, 7276.41, 4251.91, 4700.77, 0.000, 0.000, 0.000, 21:34:02.164, 1559846042164
226, -3488.37, 4377.32, 4512.44, 7956.86, 4146.38, 7275.85, 4253.22, 4701.15, 0.000, 0.000, 0.000, 21:34:02.623, 1559846042623
227, -3491.19, 4378.08, 4513.09, 7951.32, 4150.36, 7270.89, 4252.93, 4702.14, 0.012, -0.028, 1.018, 21:34:02.623, 1559846042623
228, -3490.85, 4377.46, 4513.69, 7948.48, 4149.18, 7268.45, 4253.36, 4702.58, 0.000, 0.000, 0.000, 21:34:02.623, 1559846042623
229, -3489.31, 4376.40, 4513.98, 7953.56, 4145.87, 7272.23, 4253.49, 4703.99, 0.000, 0.000, 0.000, 21:34:02.623, 1559846042623
230, -3487.43, 4377.21, 4512.55, 7959.66, 4145.91, 7278.26, 4251.08, 4702.58, 0.000, 0.000, 0.000, 21:34:02.624, 1559846042624
231, -3491.05, 4379.00, 4513.22, 7958.61, 4147.12, 7277.73, 4251.23, 4700.71, 0.000, 0.000, 0.000, 21:34:02.624, 1559846042624
232, -3493.96, 4377.95, 4513.40, 7951.81, 4148.55, 7271.27, 4252.80, 4702.94, 0.000, 0.000, 0.000, 21:34:02.624, 1559846042624
233, -3491.05, 4377.99, 4512.12, 7949.51, 4150.29, 7269.01, 4254.68, 4703.66, 0.000, 0.000, 0.000, 21:34:02.624, 1559846042624
234, -3488.95, 4377.43, 4512.39, 7953.11, 4148.28, 7272.77, 4252.58, 4702.34, 0.000, 0.000, 0.000, 21:34:02.624, 1559846042624
235, -3489.26, 4374.73, 4512.84, 7958.43, 4147.97, 7277.37, 4250.97, 4702.45, 0.000, 0.000, 0.000, 21:34:02.624, 1559846042624
236, -3491.36, 4376.52, 4514.25, 7958.03, 4146.61, 7276.57, 4253.83, 4703.83, 0.000, 0.000, 0.000, 21:34:02.624, 1559846042624
237, -3490.38, 4378.10, 4513.44, 7952.19, 4151.14, 7271.49, 4255.08, 4702.27, 0.012, -0.030, 1.026, 21:34:02.624, 1559846042624
238, -3488.46, 4380.32, 4512.24, 7949.24, 4151.48, 7269.17, 4252.93, 4703.12, 0.000, 0.000, 0.000, 21:34:02.625, 1559846042625
239, -3489.26, 4379.91, 4511.88, 7952.28, 4149.15, 7271.69, 4251.08, 4702.78, 0.000, 0.000, 0.000, 21:34:02.625, 1559846042625
240, -3489.46, 4379.22, 4513.29, 7959.25, 4147.39, 7277.64, 4250.05, 4702.31, 0.000, 0.000, 0.000, 21:34:02.625, 1559846042625
241, -3493.42, 4377.77, 4513.67, 7958.36, 4147.23, 7277.03, 4251.39, 4703.68, 0.000, 0.000, 0.000, 21:34:02.625, 1559846042625
242, -3491.95, 4379.58, 4513.78, 7952.08, 4148.55, 7272.16, 4255.35, 4702.34, 0.000, 0.000, 0.000, 21:34:02.625, 1559846042625
243, -3491.54, 4379.02, 4513.51, 7948.59, 4147.05, 7268.47, 4254.68, 4701.22, 0.000, 0.000, 0.000, 21:34:02.625, 1559846042625
244, -3490.20, 4379.51, 4512.95, 7952.62, 4146.34, 7271.87, 4252.87, 4701.80, 0.000, 0.000, 0.000, 21:34:02.625, 1559846042625
245, -3487.43, 4377.77, 4510.98, 7958.99, 4145.87, 7277.86, 4253.67, 4702.38, 0.000, 0.000, 0.000, 21:34:02.625, 1559846042625
246, -3486.27, 4376.14, 4509.55, 7959.10, 4146.40, 7278.35, 4254.27, 4701.82, 0.008, -0.030, 1.022, 21:34:02.626, 1559846042626
247, -3489.51, 4378.33, 4510.72, 7952.88, 4149.29, 7273.12, 4251.70, 4700.88, 0.000, 0.000, 0.000, 21:34:02.626, 1559846042626
248, -3492.30, 4379.82, 4514.60, 7949.44, 4149.69, 7270.15, 4251.17, 4701.71, 0.000, 0.000, 0.000, 21:34:02.626, 1559846042626
249, -3491.61, 4378.35, 4515.59, 7953.87, 4149.33, 7272.90, 4251.21, 4702.65, 0.000, 0.000, 0.000, 21:34:02.626, 1559846042626
250, -3489.84, 4377.16, 4513.49, 7959.48, 4150.12, 7277.86, 4252.80, 4703.43, 0.000, 0.000, 0.000, 21:34:02.626, 1559846042626
251, -3492.08, 4377.72, 4512.12, 7959.03, 4147.23, 7277.91, 4253.43, 4703.77, 0.000, 0.000, 0.000, 21:34:02.626, 1559846042626
252, -3491.45, 4380.96, 4512.48, 7952.04, 4147.46, 7271.76, 4253.25, 4702.58, 0.000, 0.000, 0.000, 21:34:02.626, 1559846042626
253, -3492.06, 4378.77, 4510.00, 7948.46, 4148.35, 7268.18, 4253.45, 4701.98, 0.000, 0.000, 0.000, 21:34:02.626, 1559846042626
254, -3492.48, 4378.71, 4510.90, 7952.75, 4148.73, 7272.05, 4252.22, 4702.49, 0.000, 0.000, 0.000, 21:34:02.626, 1559846042626
255, -3490.02, 4379.06, 4511.90, 7958.41, 4146.61, 7276.61, 4252.44, 4703.83, 0.000, 0.000, 0.000, 21:34:02.626, 1559846042626
0, -3488.66, 4378.95, 4511.59, 7958.32, 4146.27, 7276.86, 4253.13, 4703.79, 0.008, -0.032, 1.020, 21:34:02.627, 1559846042627
1, -3491.83, 4378.62, 4511.32, 7951.48, 4148.89, 7271.85, 4254.94, 4701.87, 0.000, 0.000, 0.000, 21:34:02.627, 1559846042627
2, -3489.73, 4378.44, 4512.35, 7947.25, 4150.56, 7268.07, 4254.97, 4700.66, 0.000, 0.000, 0.000, 21:34:02.627, 1559846042627
3, -3489.60, 4377.37, 4513.35, 7951.45, 4147.66, 7271.09, 4251.88, 4701.67, 0.000, 0.000, 0.000, 21:34:02.627, 1559846042627
4, -3490.14, 4377.59, 4512.35, 7958.09, 4144.91, 7277.15, 4252.55, 4702.11, 0.000, 0.000, 0.000, 21:34:02.627, 1559846042627
5, -3489.73, 4378.35, 4511.88, 7958.49, 4146.61, 7277.71, 4253.36, 4702.56, 0.000, 0.000, 0.000, 21:34:02.628, 1559846042628
6, -3492.33, 4377.72, 4514.83, 7951.66, 4149.40, 7271.87, 4255.44, 4700.93, 0.000, 0.000, 0.000, 21:34:02.628, 1559846042628
7, -3494.07, 4378.44, 4514.69, 7948.59, 4150.18, 7268.65, 4254.52, 4701.31, 0.000, 0.000, 0.000, 21:34:02.628, 1559846042628
8, -3490.98, 4378.39, 4512.93, 7952.30, 4148.64, 7271.60, 4255.35, 4701.29, 0.000, 0.000, 0.000, 21:34:02.629, 1559846042629
9, -3489.46, 4377.21, 4510.72, 7957.58, 4147.43, 7276.32, 4253.22, 4701.00, 0.000, 0.000, 0.000, 21:34:02.629, 1559846042629
10, -3491.25, 4375.87, 4511.99, 7957.62, 4149.67, 7276.59, 4252.73, 4701.69, 0.006, -0.038, 1.018, 21:34:02.629, 1559846042629
11, -3489.98, 4376.31, 4513.53, 7951.32, 4149.89, 7271.49, 4252.93, 4702.40, 0.000, 0.000, 0.000, 21:34:02.629, 1559846042629
12, -3489.38, 4378.42, 4515.34, 7947.27, 4151.32, 7267.58, 4252.35, 4702.81, 0.000, 0.000, 0.000, 21:34:02.629, 1559846042629
13, -3490.27, 4376.83, 4512.88, 7950.49, 4148.06, 7270.49, 4251.21, 4701.33, 0.000, 0.000, 0.000, 21:34:02.630, 1559846042630
14, -3490.31, 4377.05, 4512.75, 7957.67, 4145.38, 7276.90, 4253.16, 4700.08, 0.000, 0.000, 0.000, 21:34:02.630, 1559846042630
15, -3492.04, 4378.57, 4513.40, 7956.80, 4146.52, 7276.65, 4252.44, 4700.55, 0.000, 0.000, 0.000, 21:34:02.630, 1559846042630
16, -3490.78, 4380.11, 4514.00, 7950.72, 4150.29, 7271.51, 4252.15, 4702.45, 0.000, 0.000, 0.000, 21:34:02.630, 1559846042630
17, -3489.60, 4378.39, 4513.40, 7948.26, 4151.30, 7268.88, 4251.50, 4701.94, 0.000, 0.000, 0.000, 21:34:02.631, 1559846042631
18, -3490.98, 4378.66, 4511.92, 7951.54, 4148.13, 7272.05, 4249.94, 4701.78, 0.000, 0.000, 0.000, 21:34:02.631, 1559846042631
19, -3490.20, 4379.67, 4513.29, 7957.73, 4148.06, 7277.33, 4250.12, 4700.59, 0.000, 0.000, 0.000, 21:34:02.631, 1559846042631
20, -3491.39, 4380.56, 4511.77, 7957.40, 4147.95, 7276.77, 4252.06, 4700.30, 0.010, -0.026, 1.018, 21:34:02.631, 1559846042631
21, -3491.72, 4378.71, 4512.21, 7951.34, 4146.90, 7271.80, 4252.40, 4699.97, 0.000, 0.000, 0.000, 21:34:02.631, 1559846042631
22, -3492.53, 4379.33, 4513.24, 7948.41, 4149.24, 7268.32, 4254.34, 4699.16, 0.000, 0.000, 0.000, 21:34:02.631, 1559846042631
23, -3489.64, 4378.66, 4512.39, 7951.03, 4146.72, 7270.78, 4252.82, 4700.08, 0.000, 0.000, 0.000, 21:34:02.631, 1559846042631
24, -3491.32, 4377.92, 4511.32, 7956.98, 4145.78, 7276.14, 4251.59, 4703.25, 0.000, 0.000, 0.000, 21:34:02.631, 1559846042631
25, -3491.36, 4376.56, 4512.95, 7957.02, 4147.88, 7276.77, 4252.53, 4703.68, 0.000, 0.000, 0.000, 21:34:02.631, 1559846042631
26, -3489.26, 4377.79, 4513.89, 7951.16, 4148.84, 7271.56, 4253.85, 4703.34, 0.000, 0.000, 0.000, 21:34:02.631, 1559846042631
27, -3489.42, 4379.22, 4513.69, 7947.03, 4149.31, 7267.38, 4254.92, 4701.85, 0.000, 0.000, 0.000, 21:34:02.632, 1559846042632
28, -3489.87, 4377.90, 4512.21, 7949.98, 4149.98, 7270.28, 4253.67, 4699.81, 0.000, 0.000, 0.000, 21:34:02.632, 1559846042632
29, -3490.72, 4377.79, 4510.56, 7956.53, 4146.87, 7276.10, 4251.32, 4701.00, 0.000, 0.000, 0.000, 21:34:02.632, 1559846042632
30, -3487.50, 4376.07, 4511.77, 7956.39, 4145.00, 7276.01, 4251.32, 4701.35, 0.012, -0.032, 1.018, 21:34:02.632, 1559846042632
31, -3489.06, 4379.78, 4513.51, 7949.76, 4147.46, 7270.04, 4252.60, 4701.67, 0.000, 0.000, 0.000, 21:34:02.632, 1559846042632
32, -3491.14, 4381.12, 4513.62, 7947.07, 4151.90, 7268.00, 4252.37, 4702.52, 0.000, 0.000, 0.000, 21:34:02.632, 1559846042632
33, -3493.73, 4378.51, 4511.50, 7950.49, 4148.95, 7271.04, 4252.13, 4700.95, 0.000, 0.000, 0.000, 21:34:02.632, 1559846042632
34, -3492.26, 4376.65, 4511.10, 7955.79, 4146.61, 7275.78, 4252.78, 4700.44, 0.000, 0.000, 0.000, 21:34:02.632, 1559846042632
35, -3491.10, 4378.80, 4512.55, 7955.61, 4145.76, 7275.11, 4253.40, 4700.86, 0.000, 0.000, 0.000, 21:34:02.632, 1559846042632
36, -3491.32, 4378.26, 4512.68, 7949.73, 4149.22, 7269.97, 4252.67, 4700.68, 0.000, 0.000, 0.000, 21:34:02.632, 1559846042632
37, -3492.24, 4378.13, 4511.36, 7946.22, 4152.17, 7266.35, 4254.05, 4701.29, 0.000, 0.000, 0.000, 21:34:02.633, 1559846042633
38, -3489.62, 4377.25, 4510.58, 7949.38, 4147.48, 7269.32, 4252.58, 4702.38, 0.000, 0.000, 0.000, 21:34:02.633, 1559846042633
39, -3489.24, 4377.77, 4511.10, 7955.79, 4144.97, 7275.34, 4251.12, 4701.31, 0.000, 0.000, 0.000, 21:34:02.633, 1559846042633
40, -3491.03, 4376.34, 4512.10, 7955.52, 4145.87, 7275.09, 4252.96, 4699.66, 0.010, -0.032, 1.018, 21:34:02.633, 1559846042633
41, -3490.49, 4378.35, 4512.50, 7950.09, 4150.14, 7270.44, 4254.14, 4698.52, 0.000, 0.000, 0.000, 21:34:02.633, 1559846042633
42, -3488.17, 4378.17, 4512.73, 7946.47, 4150.52, 7267.16, 4253.87, 4699.66, 0.000, 0.000, 0.000, 21:34:02.633, 1559846042633
43, -3489.64, 4377.83, 4513.17, 7949.24, 4147.95, 7269.52, 4253.51, 4699.30, 0.000, 0.000, 0.000, 21:34:02.633, 1559846042633
44, -3491.25, 4376.90, 4510.54, 7955.32, 4145.31, 7275.05, 4253.45, 4700.66, 0.000, 0.000, 0.000, 21:34:02.633, 1559846042633
45, -3493.38, 4378.21, 4511.92, 7955.43, 4147.37, 7275.31, 4254.25, 4701.40, 0.000, 0.000, 0.000, 21:34:02.633, 1559846042633
46, -3492.39, 4378.13, 4512.88, 7950.14, 4149.51, 7270.89, 4253.02, 4701.09, 0.000, 0.000, 0.000, 21:34:02.634, 1559846042634
47, -3491.01, 4378.10, 4513.04, 7946.13, 4148.39, 7267.16, 4252.06, 4700.73, 0.000, 0.000, 0.000, 21:34:02.634, 1559846042634
48, -3490.69, 4379.00, 4513.06, 7949.20, 4147.95, 7270.08, 4252.78, 4699.21, 0.000, 0.000, 0.000, 21:34:02.634, 1559846042634
49, -3490.16, 4377.61, 4512.10, 7954.85, 4147.54, 7274.58, 4251.97, 4700.15, 0.000, 0.000, 0.000, 21:34:02.634, 1559846042634
50, -3490.38, 4378.91, 4511.57, 7956.55, 4147.99, 7276.03, 4250.14, 4702.38, 0.008, -0.032, 1.028, 21:34:02.634, 1559846042634
51, -3489.35, 4379.27, 4512.50, 7949.91, 4149.29, 7270.64, 4251.26, 4702.11, 0.000, 0.000, 0.000, 21:34:02.634, 1559846042634
52, -3491.66, 4380.67, 4511.70, 7946.60, 4148.57, 7267.16, 4253.67, 4702.54, 0.000, 0.000, 0.000, 21:34:02.634, 1559846042634
53, -3492.06, 4378.44, 4510.72, 7950.18, 4149.74, 7269.95, 4252.53, 4702.31, 0.000, 0.000, 0.000, 21:34:02.634, 1559846042634
54, -3490.36, 4378.44, 4510.22, 7955.57, 4147.43, 7274.64, 4251.55, 4700.77, 0.000, 0.000, 0.000, 21:34:02.634, 1559846042634
55, -3490.16, 4379.27, 4510.65, 7955.08, 4146.65, 7275.29, 4251.91, 4699.79, 0.000, 0.000, 0.000, 21:34:02.634, 1559846042634
56, -3491.99, 4378.68, 4511.43, 7949.60, 4149.36, 7270.98, 4254.74, 4701.78, 0.000, 0.000, 0.000, 21:34:02.635, 1559846042635
57, -3492.73, 4378.21, 4512.55, 7945.75, 4148.22, 7267.40, 4255.97, 4700.75, 0.000, 0.000, 0.000, 21:34:02.635, 1559846042635
58, -3489.71, 4377.10, 4512.66, 7948.70, 4147.50, 7269.52, 4253.25, 4701.20, 0.000, 0.000, 0.000, 21:34:02.635, 1559846042635
59, -3490.31, 4377.23, 4513.58, 7954.54, 4145.35, 7274.35, 4251.17, 4700.59, 0.000, 0.000, 0.000, 21:34:02.635, 1559846042635
60, -3491.03, 4378.84, 4513.17, 7954.52, 4145.94, 7275.05, 4251.41, 4699.48, 0.006, -0.030, 1.022, 21:34:02.635, 1559846042635
61, -3491.83, 4378.57, 4511.61, 7948.48, 4148.30, 7270.20, 4253.83, 4697.87, 0.000, 0.000, 0.000, 21:34:02.636, 1559846042636
62, -3491.61, 4379.47, 4512.35, 7945.44, 4150.07, 7266.69, 4254.52, 4698.58, 0.000, 0.000, 0.000, 21:34:02.636, 1559846042636
63, -3490.27, 4378.77, 4512.57, 7948.75, 4147.28, 7268.97, 4254.43, 4700.64, 0.000, 0.000, 0.000, 21:34:02.636, 1559846042636
64, -3491.05, 4377.28, 4510.94, 7954.25, 4144.15, 7273.97, 4252.42, 4701.91, 0.000, 0.000, 0.000, 21:34:02.636, 1559846042636
65, -3490.92, 4377.23, 4509.13, 7954.29, 4146.20, 7274.17, 4251.70, 4701.62, 0.000, 0.000, 0.000, 21:34:02.636, 1559846042636
66, -3488.64, 4379.80, 4512.68, 7948.46, 4148.13, 7269.32, 4253.63, 4700.01, 0.000, 0.000, 0.000, 21:34:02.636, 1559846042636
67, -3488.93, 4379.65, 4514.25, 7945.64, 4147.19, 7267.42, 4253.85, 4700.68, 0.000, 0.000, 0.000, 21:34:02.636, 1559846042636
68, -3491.59, 4379.56, 4511.95, 7948.24, 4146.61, 7269.52, 4253.47, 4700.50, 0.000, 0.000, 0.000, 21:34:02.636, 1559846042636
69, -3490.78, 4378.46, 4510.09, 7954.63, 4145.47, 7274.46, 4252.20, 4701.78, 0.000, 0.000, 0.000, 21:34:02.636, 1559846042636
70, -3491.50, 4378.15, 4511.79, 7955.16, 4147.99, 7275.22, 4250.79, 4701.24, 0.014, -0.030, 1.024, 21:34:02.637, 1559846042637
71, -3491.23, 4380.03, 4513.91, 7948.95, 4148.06, 7269.86, 4251.44, 4700.71, 0.000, 0.000, 0.000, 21:34:02.637, 1559846042637
72, -3492.17, 4380.90, 4513.44, 7944.97, 4149.22, 7266.66, 4253.34, 4701.71, 0.000, 0.000, 0.000, 21:34:02.637, 1559846042637
73, -3490.02, 4377.99, 4510.74, 7948.41, 4147.92, 7269.41, 4252.29, 4700.33, 0.000, 0.000, 0.000, 21:34:02.637, 1559846042637
74, -3489.49, 4375.44, 4509.60, 7953.87, 4146.45, 7273.44, 4250.88, 4699.81, 0.000, 0.000, 0.000, 21:34:02.637, 1559846042637
75, -3489.44, 4376.92, 4510.40, 7955.16, 4147.37, 7275.52, 4252.49, 4701.49, 0.000, 0.000, 0.000, 21:34:02.637, 1559846042637
76, -3491.43, 4379.44, 4512.62, 7949.35, 4149.56, 7270.60, 4251.61, 4700.97, 0.000, 0.000, 0.000, 21:34:02.637, 1559846042637
77, -3492.15, 4379.71, 4511.77, 7944.90, 4148.77, 7266.78, 4252.87, 4700.97, 0.000, 0.000, 0.000, 21:34:02.637, 1559846042637
78, -3490.25, 4379.11, 4511.95, 7947.56, 4146.72, 7269.03, 4253.43, 4700.93, 0.000, 0.000, 0.000, 21:34:02.637, 1559846042637
79, -3492.04, 4376.87, 4510.29, 7954.29, 4144.82, 7274.44, 4250.99, 4699.88, 0.000, 0.000, 0.000, 21:34:02.637, 1559846042637
80, -3493.33, 4376.78, 4510.74, 7955.19, 4146.14, 7275.45, 4254.01, 4700.39, 0.010, -0.030, 1.020, 21:34:02.638, 1559846042638
81, -3490.83, 4378.39, 4511.57, 7948.95, 4147.95, 7270.44, 4253.63, 4701.22, 0.000, 0.000, 0.000, 21:34:02.638, 1559846042638
82, -3489.93, 4378.35, 4510.90, 7944.68, 4148.77, 7266.19, 4253.40, 4701.26, 0.000, 0.000, 0.000, 21:34:02.638, 1559846042638
83, -3492.17, 4377.34, 4510.98, 7947.81, 4148.33, 7269.30, 4255.12, 4702.65, 0.000, 0.000, 0.000, 21:34:02.638, 1559846042638
84, -3492.04, 4376.16, 4510.20, 7953.71, 4147.75, 7275.02, 4254.12, 4701.33, 0.000, 0.000, 0.000, 21:34:02.638, 1559846042638
85, -3492.75, 4377.52, 4510.76, 7953.89, 4147.12, 7274.78, 4253.51, 4700.59, 0.000, 0.000, 0.000, 21:34:02.638, 1559846042638
86, -3492.64, 4379.89, 4511.86, 7948.48, 4148.06, 7270.08, 4252.80, 4701.15, 0.000, 0.000, 0.000, 21:34:02.638, 1559846042638
87, -3491.63, 4377.34, 4511.99, 7944.99, 4149.74, 7266.60, 4254.52, 4701.78, 0.000, 0.000, 0.000, 21:34:02.638, 1559846042638
88, -3489.06, 4379.29, 4511.86, 7947.72, 4146.72, 7269.46, 4252.58, 4702.25, 0.000, 0.000, 0.000, 21:34:02.640, 1559846042640
89, -3489.26, 4377.95, 4511.57, 7953.04, 4144.84, 7273.68, 4250.81, 4702.23, 0.000, 0.000, 0.000, 21:34:02.640, 1559846042640
90, -3490.96, 4379.47, 4511.23, 7954.52, 4147.70, 7275.27, 4249.76, 4702.16, 0.010, -0.032, 1.020, 21:34:03.103, 1559846043103
91, -3490.76, 4379.44, 4513.04, 7949.26, 4148.91, 7270.11, 4253.04, 4702.34, 0.000, 0.000, 0.000, 21:34:03.104, 1559846043104
92, -3490.22, 4379.42, 4512.24, 7944.44, 4149.29, 7266.24, 4255.46, 4702.23, 0.000, 0.000, 0.000, 21:34:03.104, 1559846043104
93, -3490.76, 4378.68, 4510.45, 7947.70, 4147.68, 7268.79, 4254.97, 4701.60, 0.000, 0.000, 0.000, 21:34:03.104, 1559846043104
94, -3492.37, 4377.99, 4508.77, 7953.11, 4145.42, 7273.28, 4252.35, 4702.05, 0.000, 0.000, 0.000, 21:34:03.104, 1559846043104
95, -3492.71, 4378.15, 4510.18, 7953.64, 4147.01, 7274.13, 4250.32, 4701.11, 0.000, 0.000, 0.000, 21:34:03.104, 1559846043104
96, -3491.97, 4379.29, 4512.93, 7948.68, 4150.34, 7268.94, 4252.31, 4701.15, 0.000, 0.000, 0.000, 21:34:03.105, 1559846043105
97, -3491.14, 4377.99, 4513.85, 7944.55, 4149.49, 7265.10, 4253.89, 4699.92, 0.000, 0.000, 0.000, 21:34:03.105, 1559846043105
98, -3491.88, 4379.15, 4513.11, 7947.41, 4147.57, 7268.32, 4253.22, 4700.88, 0.000, 0.000, 0.000, 21:34:03.105, 1559846043105
99, -3490.38, 4378.28, 4510.58, 7953.20, 4145.40, 7274.00, 4251.79, 4702.49, 0.000, 0.000, 0.000, 21:34:03.105, 1559846043105
100, -3490.65, 4377.16, 4512.12, 7954.23, 4145.49, 7275.05, 4251.61, 4702.78, 0.016, -0.032, 1.012, 21:34:03.106, 1559846043106
101, -3491.23, 4377.99, 4511.45, 7948.24, 4148.42, 7269.64, 4251.88, 4701.09, 0.000, 0.000, 0.000, 21:34:03.106, 1559846043106
102, -3491.48, 4380.32, 4511.16, 7943.56, 4149.71, 7265.26, 4254.19, 4701.26, 0.000, 0.000, 0.000, 21:34:03.106, 1559846043106
103, -3490.81, 4380.52, 4511.45, 7946.96, 4146.16, 7268.00, 4251.88, 4701.49, 0.000, 0.000, 0.000, 21:34:03.106, 1559846043106
104, -3490.09, 4378.71, 4509.49, 7953.06, 4145.15, 7273.88, 4250.94, 4702.31, 0.000, 0.000, 0.000, 21:34:03.107, 1559846043107
105, -3491.25, 4378.91, 4510.90, 7954.25, 4146.05, 7274.69, 4252.02, 4702.31, 0.000, 0.000, 0.000, 21:34:03.107, 1559846043107
106, -3492.71, 4379.27, 4512.82, 7948.26, 4147.68, 7269.46, 4253.40, 4701.60, 0.000, 0.000, 0.000, 21:34:03.107, 1559846043107
107, -3491.99, 4379.18, 4510.83, 7943.54, 4147.97, 7265.72, 4254.59, 4699.99, 0.000, 0.000, 0.000, 21:34:03.107, 1559846043107
108, -3493.56, 4379.87, 4510.05, 7946.67, 4147.57, 7268.56, 4253.72, 4700.53, 0.000, 0.000, 0.000, 21:34:03.107, 1559846043107
109, -3492.08, 4378.26, 4509.75, 7952.15, 4147.61, 7273.08, 4253.31, 4698.85, 0.016, -0.032, 1.014, 21:34:03.108, 1559846043108
110, -3491.41, 4377.32, 4510.11, 7953.51, 4148.51, 7274.31, 4252.84, 4699.97, 0.000, 0.000, 0.000, 21:34:03.108, 1559846043108
111, -3492.93, 4378.80, 4511.27, 7948.35, 4150.96, 7269.95, 4253.92, 4699.63, 0.000, 0.000, 0.000, 21:34:03.108, 1559846043108
112, -3491.70, 4378.24, 4512.17, 7943.79, 4148.60, 7265.88, 4253.36, 4698.92, 0.000, 0.000, 0.000, 21:34:03.109, 1559846043109
113, -3489.69, 4378.59, 4511.57, 7947.50, 4149.06, 7269.21, 4251.17, 4700.10, 0.000, 0.000, 0.000, 21:34:03.109, 1559846043109
114, -3491.05, 4377.63, 4511.41, 7953.20, 4146.61, 7274.31, 4251.61, 4700.75, 0.000, 0.000, 0.000, 21:34:03.109, 1559846043109
115, -3493.89, 4379.11, 4513.33, 7955.03, 4146.72, 7275.67, 4252.62, 4700.95, 0.000, 0.000, 0.000, 21:34:03.110, 1559846043110
116, -3492.75, 4379.85, 4512.48, 7949.69, 4145.98, 7271.27, 4252.93, 4701.31, 0.000, 0.000, 0.000, 21:34:03.110, 1559846043110
117, -3491.52, 4378.73, 4511.99, 7946.02, 4147.34, 7268.09, 4252.49, 4700.93, 0.000, 0.000, 0.000, 21:34:03.110, 1559846043110
118, -3489.53, 4378.59, 4510.54, 7948.93, 4148.39, 7270.89, 4250.72, 4701.38, 0.000, 0.000, 0.000, 21:34:03.110, 1559846043110
119, -3491.61, 4379.44, 4508.64, 7955.01, 4146.45, 7274.80, 4251.37, 4701.33, 0.014, -0.032, 1.012, 21:34:03.111, 1559846043111
120, -3492.21, 4378.77, 4509.67, 7956.51, 4147.32, 7276.74, 4251.77, 4702.38, 0.000, 0.000, 0.000, 21:34:03.112, 1559846043112
121, -3492.84, 4378.46, 4512.06, 7950.36, 4149.20, 7271.98, 4252.40, 4701.26, 0.000, 0.000, 0.000, 21:34:03.112, 1559846043112
122, -3492.35, 4379.29, 4512.97, 7946.78, 4150.25, 7268.43, 4254.21, 4701.38, 0.000, 0.000, 0.000, 21:34:03.113, 1559846043113
123, -3491.39, 4377.79, 4513.40, 7949.73, 4149.18, 7271.29, 4253.40, 4700.37, 0.000, 0.000, 0.000, 21:34:03.113, 1559846043113
124, -3490.05, 4376.87, 4511.99, 7955.97, 4145.56, 7276.27, 4251.77, 4701.00, 0.000, 0.000, 0.000, 21:34:03.113, 1559846043113
125, -3491.43, 4378.84, 4511.45, 7957.80, 4145.13, 7278.33, 4253.56, 4701.35, 0.000, 0.000, 0.000, 21:34:03.114, 1559846043114
126, -3491.54, 4380.70, 4512.55, 7952.19, 4148.51, 7273.17, 4254.48, 4702.83, 0.000, 0.000, 0.000, 21:34:03.115, 1559846043115
127, -3490.38, 4381.12, 4512.44, 7948.08, 4149.47, 7269.44, 4254.07, 4700.97, 0.000, 0.000, 0.000, 21:34:03.116, 1559846043116
128, -3490.83, 4378.35, 4512.10, 7949.69, 4147.68, 7272.07, 4254.79, 4701.94, 0.000, 0.000, 0.000, 21:34:03.116, 1559846043116
129, -3489.17, 4375.96, 4509.96, 7955.72, 4146.83, 7276.63, 4251.95, 4702.70, 0.010, -0.036, 1.016, 21:34:03.116, 1559846043116
130, -3488.68, 4377.92, 4510.90, 7958.00, 4145.65, 7278.44, 4251.48, 4701.67, 0.000, 0.000, 0.000, 21:34:03.117, 1559846043117
131, -3490.58, 4379.56, 4511.10, 7953.11, 4145.51, 7274.64, 4254.14, 4702.20, 0.000, 0.000, 0.000, 21:34:03.117, 1559846043117
132, -3488.79, 4379.98, 4512.35, 7948.10, 4147.43, 7270.53, 4255.01, 4701.62, 0.000, 0.000, 0.000, 21:34:03.118, 1559846043118
133, -3491.54, 4380.14, 4513.71, 7950.54, 4147.54, 7272.30, 4252.75, 4700.71, 0.000, 0.000, 0.000, 21:34:03.118, 1559846043118
134, -3491.57, 4379.02, 4512.84, 7956.91, 4144.21, 7277.71, 4249.56, 4701.38, 0.000, 0.000, 0.000, 21:34:03.119, 1559846043119
135, -3492.06, 4377.68, 4510.29, 7957.94, 4147.23, 7278.42, 4250.72, 4702.18, 0.000, 0.000, 0.000, 21:34:03.119, 1559846043119
136, -3492.82, 4379.06, 4510.76, 7952.48, 4149.00, 7274.11, 4252.31, 4703.77, 0.000, 0.000, 0.000, 21:34:03.119, 1559846043119
137, -3494.65, 4378.55, 4511.27, 7948.64, 4148.71, 7270.62, 4253.94, 4703.57, 0.000, 0.000, 0.000, 21:34:03.119, 1559846043119
138, -3492.10, 4381.08, 4511.83, 7951.92, 4148.95, 7273.37, 4254.01, 4702.65, 0.000, 0.000, 0.000, 21:34:03.119, 1559846043119
139, -3490.69, 4378.89, 4514.02, 7957.69, 4145.15, 7278.60, 4251.75, 4702.87, 0.014, -0.030, 1.014, 21:34:03.119, 1559846043119
140, -3490.43, 4377.30, 4512.57, 7957.94, 4145.42, 7279.23, 4253.29, 4701.76, 0.000, 0.000, 0.000, 21:34:03.120, 1559846043120
141, -3488.93, 4377.61, 4512.66, 7952.66, 4149.11, 7275.13, 4255.95, 4701.13, 0.000, 0.000, 0.000, 21:34:03.120, 1559846043120
142, -3489.89, 4378.73, 4512.62, 7948.32, 4150.05, 7271.27, 4254.30, 4700.50, 0.000, 0.000, 0.000, 21:34:03.121, 1559846043121
143, -3489.15, 4378.15, 4511.21, 7950.58, 4147.99, 7272.45, 4253.18, 4700.73, 0.000, 0.000, 0.000, 21:34:03.121, 1559846043121
144, -3488.95, 4379.56, 4511.90, 7956.48, 4146.78, 7277.71, 4252.49, 4701.38, 0.000, 0.000, 0.000, 21:34:03.121, 1559846043121
145, -3490.65, 4379.85, 4512.06, 7957.42, 4145.69, 7278.47, 4253.69, 4701.31, 0.000, 0.000, 0.000, 21:34:03.121, 1559846043121
146, -3489.71, 4379.18, 4514.14, 7953.11, 4147.68, 7275.16, 4256.26, 4700.55, 0.000, 0.000, 0.000, 21:34:03.121, 1559846043121
147, -3491.05, 4379.58, 4512.50, 7949.04, 4148.66, 7271.11, 4255.57, 4701.78, 0.000, 0.000, 0.000, 21:34:03.121, 1559846043121
148, -3491.90, 4378.51, 4510.98, 7950.69, 4149.58, 7272.61, 4254.43, 4703.16, 0.000, 0.000, 0.000, 21:34:03.121, 1559846043121
149, -3490.92, 4377.72, 4511.54, 7956.24, 4148.46, 7277.71, 4253.18, 4701.94, 0.012, -0.026, 1.022, 21:34:03.122, 1559846043122
150, -3490.09, 4378.26, 4512.46, 7957.89, 4146.47, 7279.05, 4251.84, 4701.31, 0.000, 0.000, 0.000, 21:34:03.122, 1559846043122
151, -3491.57, 4378.35, 4512.57, 7952.93, 4148.89, 7274.91, 4252.13, 4701.87, 0.000, 0.000, 0.000, 21:34:03.123, 1559846043123
152, -3491.99, 4379.40, 4511.72, 7948.37, 4150.38, 7270.64, 4252.55, 4699.81, 0.000, 0.000, 0.000, 21:34:03.123, 1559846043123
153, -3491.50, 4378.08, 4512.79, 7950.25, 4147.21, 7272.32, 4253.11, 4702.11, 0.000, 0.000, 0.000, 21:34:03.123, 1559846043123
154, -3492.80, 4378.57, 4512.93, 7957.20, 4145.02, 7278.31, 4253.72, 4702.87, 0.000, 0.000, 0.000, 21:34:03.123, 1559846043123
155, -3494.29, 4378.21, 4511.48, 7958.85, 4146.78, 7279.58, 4254.90, 4702.23, 0.000, 0.000, 0.000, 21:34:03.123, 1559846043123
156, -3494.45, 4378.33, 4512.46, 7953.71, 4149.74, 7274.89, 4254.59, 4703.12, 0.000, 0.000, 0.000, 21:34:03.123, 1559846043123
157, -3492.84, 4377.32, 4512.08, 7948.66, 4148.39, 7270.75, 4252.46, 4701.38, 0.000, 0.000, 0.000, 21:34:03.124, 1559846043124
158, -3491.57, 4377.90, 4510.92, 7950.90, 4146.23, 7273.08, 4254.07, 4701.69, 0.000, 0.000, 0.000, 21:34:03.124, 1559846043124
159, -3490.72, 4377.46, 4510.94, 7957.62, 4146.43, 7278.60, 4252.73, 4703.16, 0.012, -0.028, 1.022, 21:34:03.124, 1559846043124
160, -3491.61, 4377.57, 4509.89, 7958.41, 4146.65, 7280.03, 4251.21, 4702.31, 0.000, 0.000, 0.000, 21:34:03.124, 1559846043124
161, -3491.01, 4378.35, 4509.82, 7952.62, 4149.78, 7274.64, 4253.16, 4700.57, 0.000, 0.000, 0.000, 21:34:03.124, 1559846043124
162, -3491.90, 4380.74, 4510.11, 7948.32, 4151.12, 7271.60, 4253.85, 4701.04, 0.000, 0.000, 0.000, 21:34:03.124, 1559846043124
163, -3492.21, 4379.47, 4511.03, 7950.07, 4147.72, 7273.15, 4254.05, 4700.82, 0.000, 0.000, 0.000, 21:34:03.125, 1559846043125
164, -3491.88, 4376.99, 4511.48, 7956.77, 4147.77, 7278.29, 4254.12, 4701.67, 0.000, 0.000, 0.000, 21:34:03.125, 1559846043125
165, -3492.26, 4378.77, 4511.72, 7958.74, 4147.50, 7280.25, 4253.94, 4701.98, 0.000, 0.000, 0.000, 21:34:03.125, 1559846043125
166, -3493.94, 4379.51, 4514.47, 7952.77, 4148.66, 7275.07, 4254.97, 4701.40, 0.000, 0.000, 0.000, 21:34:03.125, 1559846043125
167, -3494.54, 4378.77, 4512.77, 7947.92, 4150.72, 7270.60, 4256.22, 4700.15, 0.000, 0.000, 0.000, 21:34:03.129, 1559846043129
168, -3492.21, 4377.99, 4510.81, 7950.14, 4148.24, 7272.56, 4254.52, 4701.13, 0.000, 0.000, 0.000, 21:34:03.130, 1559846043130
169, -3492.50, 4378.53, 4510.78, 7957.13, 4147.88, 7278.47, 4253.31, 4703.21, 0.004, -0.032, 1.024, 21:34:03.130, 1559846043130
170, -3492.50, 4378.89, 4510.56, 7958.67, 4148.57, 7279.65, 4251.55, 4702.00, 0.000, 0.000, 0.000, 21:34:03.130, 1559846043130
171, -3490.02, 4377.83, 4512.77, 7953.44, 4149.27, 7274.73, 4252.91, 4701.20, 0.000, 0.000, 0.000, 21:34:03.130, 1559846043130
172, -3490.83, 4378.13, 4513.24, 7948.48, 4152.02, 7270.87, 4252.87, 4702.47, 0.000, 0.000, 0.000, 21:34:03.130, 1559846043130
173, -3491.45, 4379.11, 4512.08, 7950.27, 4150.63, 7272.85, 4254.07, 4703.68, 0.000, 0.000, 0.000, 21:34:03.131, 1559846043131
174, -3489.69, 4378.95, 4512.59, 7956.84, 4148.80, 7278.53, 4250.85, 4702.61, 0.000, 0.000, 0.000, 21:34:03.131, 1559846043131
175, -3491.48, 4379.00, 4512.24, 7958.88, 4146.32, 7280.16, 4251.82, 4702.72, 0.000, 0.000, 0.000, 21:34:03.131, 1559846043131
176, -3491.34, 4378.62, 4511.61, 7952.66, 4147.05, 7274.55, 4252.82, 4703.01, 0.000, 0.000, 0.000, 21:34:03.131, 1559846043131
177, -3489.53, 4377.90, 4512.59, 7947.10, 4149.89, 7269.57, 4252.08, 4702.34, 0.000, 0.000, 0.000, 21:34:03.131, 1559846043131
178, -3489.89, 4377.83, 4513.04, 7949.60, 4151.52, 7271.49, 4253.25, 4703.61, 0.000, 0.000, 0.000, 21:34:03.131, 1559846043131
179, -3492.75, 4377.99, 4511.61, 7955.41, 4148.39, 7277.12, 4252.17, 4702.54, 0.006, -0.030, 1.026, 21:34:03.131, 1559846043131
180, -3493.11, 4379.58, 4510.63, 7957.29, 4147.72, 7278.71, 4251.68, 4701.00, 0.000, 0.000, 0.000, 21:34:03.132, 1559846043132
181, -3493.51, 4377.52, 4511.48, 7951.52, 4147.77, 7273.91, 4251.73, 4700.82, 0.000, 0.000, 0.000, 21:34:03.132, 1559846043132
182, -3492.48, 4381.03, 4510.69, 7946.76, 4148.35, 7269.66, 4253.54, 4702.18, 0.000, 0.000, 0.000, 21:34:03.132, 1559846043132
183, -3494.36, 4379.35, 4511.01, 7950.16, 4147.54, 7272.18, 4254.61, 4703.05, 0.000, 0.000, 0.000, 21:34:03.132, 1559846043132
184, -3490.83, 4375.64, 4510.83, 7955.92, 4148.33, 7276.72, 4252.37, 4702.70, 0.000, 0.000, 0.000, 21:34:03.132, 1559846043132
185, -3491.36, 4379.65, 4511.48, 7957.91, 4147.12, 7279.02, 4252.71, 4700.53, 0.000, 0.000, 0.000, 21:34:03.132, 1559846043132
186, -3490.54, 4379.67, 4511.57, 7952.28, 4147.23, 7274.67, 4253.56, 4701.06, 0.000, 0.000, 0.000, 21:34:03.132, 1559846043132
187, -3491.79, 4379.06, 4512.39, 7947.34, 4150.14, 7270.22, 4254.81, 4701.22, 0.000, 0.000, 0.000, 21:34:03.133, 1559846043133
188, -3493.56, 4376.16, 4511.16, 7949.13, 4148.17, 7271.00, 4255.19, 4700.10, 0.000, 0.000, 0.000, 21:34:03.133, 1559846043133
189, -3492.55, 4376.99, 4510.85, 7955.95, 4145.51, 7277.68, 4254.25, 4700.19, 0.010, -0.032, 1.022, 21:34:03.133, 1559846043133
190, -3492.15, 4375.98, 4510.20, 7957.82, 4146.92, 7279.40, 4252.78, 4700.33, 0.000, 0.000, 0.000, 21:34:03.133, 1559846043133
191, -3493.29, 4378.28, 4509.53, 7951.83, 4148.17, 7273.95, 4253.72, 4700.10, 0.000, 0.000, 0.000, 21:34:03.133, 1559846043133
192, -3493.80, 4380.72, 4510.49, 7947.25, 4148.84, 7269.99, 4253.98, 4700.01, 0.000, 0.000, 0.000, 21:34:03.133, 1559846043133
193, -3491.32, 4380.74, 4511.43, 7949.35, 4148.82, 7271.72, 4255.12, 4699.97, 0.000, 0.000, 0.000, 21:34:03.133, 1559846043133
194, -3489.26, 4378.73, 4510.78, 7955.39, 4146.92, 7277.03, 4253.27, 4700.97, 0.000, 0.000, 0.000, 21:34:03.133, 1559846043133
195, -3489.33, 4378.46, 4510.27, 7956.80, 4145.76, 7278.29, 4252.35, 4700.95, 0.000, 0.000, 0.000, 21:34:03.133, 1559846043133
196, -3489.26, 4379.15, 4510.27, 7952.01, 4147.88, 7274.35, 4253.60, 4701.53, 0.000, 0.000, 0.000, 21:34:03.134, 1559846043134
197, -3492.57, 4378.57, 4511.07, 7947.30, 4149.69, 7270.66, 4255.30, 4700.42, 0.000, 0.000, 0.000, 21:34:03.134, 1559846043134
198, -3489.26, 4379.31, 4509.71, 7949.71, 4148.46, 7272.21, 4254.68, 4700.55, 0.000, 0.000, 0.000, 21:34:03.134, 1559846043134
199, -3490.94, 4380.41, 4509.67, 7955.83, 4149.96, 7277.46, 4253.63, 4702.23, 0.008, -0.034, 1.018, 21:34:03.134, 1559846043134
200, -3492.73, 4377.19, 4510.54, 7957.98, 4147.66, 7280.07, 4253.45, 4700.35, 0.000, 0.000, 0.000, 21:34:03.134, 1559846043134
201, -3493.26, 4378.48, 4511.95, 7952.62, 4147.10, 7275.52, 4254.03, 4700.93, 0.000, 0.000, 0.000, 21:34:03.135, 1559846043135
202, -3491.63, 4379.13, 4512.08, 7947.86, 4149.67, 7271.65, 4254.16, 4701.00, 0.000, 0.000, 0.000, 21:34:03.135, 1559846043135
203, -3491.50, 4379.67, 4511.83, 7949.80, 4148.24, 7272.68, 4255.97, 4701.31, 0.000, 0.000, 0.000, 21:34:03.135, 1559846043135
204, -3491.70, 4377.32, 4509.42, 7955.86, 4146.92, 7278.35, 4254.86, 4699.57, 0.000, 0.000, 0.000, 21:34:03.135, 1559846043135
205, -3491.83, 4376.49, 4509.49, 7958.36, 4149.02, 7280.66, 4253.65, 4700.37, 0.000, 0.000, 0.000, 21:34:03.135, 1559846043135
206, -3489.26, 4378.95, 4510.54, 7951.74, 4149.47, 7274.96, 4253.67, 4700.86, 0.000, 0.000, 0.000, 21:34:03.135, 1559846043135
207, -3489.29, 4378.06, 4511.07, 7946.80, 4151.19, 7270.28, 4255.17, 4699.74, 0.000, 0.000, 0.000, 21:34:03.135, 1559846043135
208, -3491.54, 4378.13, 4510.56, 7948.91, 4149.91, 7272.25, 4254.74, 4701.00, 0.000, 0.000, 0.000, 21:34:03.136, 1559846043136
209, -3492.26, 4378.66, 4511.05, 7955.05, 4147.68, 7276.92, 4253.45, 4701.44, 0.008, -0.030, 1.020, 21:34:03.136, 1559846043136
210, -3492.33, 4377.97, 4510.74, 7957.18, 4146.09, 7278.53, 4252.40, 4701.98, 0.000, 0.000, 0.000, 21:34:03.582, 1559846043582
211, -3491.45, 4377.99, 4511.12, 7952.28, 4147.23, 7274.84, 4253.00, 4699.74, 0.000, 0.000, 0.000, 21:34:03.583, 1559846043583
212, -3491.77, 4378.15, 4510.94, 7947.25, 4148.64, 7270.44, 4253.63, 4699.97, 0.000, 0.000, 0.000, 21:34:03.583, 1559846043583
213, -3491.57, 4378.24, 4510.31, 7948.77, 4149.18, 7271.65, 4255.53, 4699.63, 0.000, 0.000, 0.000, 21:34:03.583, 1559846043583
214, -3492.28, 4378.66, 4510.05, 7954.94, 4148.44, 7277.48, 4252.91, 4700.80, 0.000, 0.000, 0.000, 21:34:03.583, 1559846043583
215, -3490.22, 4376.67, 4511.74, 7957.62, 4147.21, 7279.99, 4252.02, 4703.92, 0.000, 0.000, 0.000, 21:34:03.583, 1559846043583
216, -3489.93, 4376.49, 4511.32, 7951.28, 4147.70, 7274.46, 4252.60, 4702.43, 0.000, 0.000, 0.000, 21:34:03.583, 1559846043583
217, -3492.66, 4377.77, 4512.39, 7947.23, 4148.01, 7270.69, 4253.20, 4699.95, 0.000, 0.000, 0.000, 21:34:03.584, 1559846043584
218, -3492.95, 4379.51, 4512.50, 7948.73, 4147.03, 7271.76, 4255.06, 4699.52, 0.000, 0.000, 0.000, 21:34:03.584, 1559846043584
219, -3491.68, 4379.29, 4510.54, 7954.67, 4147.37, 7276.70, 4254.39, 4700.50, 0.004, -0.028, 1.020, 21:34:03.584, 1559846043584
220, -3491.32, 4376.78, 4509.22, 7956.06, 4146.34, 7278.53, 4251.99, 4700.28, 0.000, 0.000, 0.000, 21:34:03.584, 1559846043584
221, -3490.05, 4376.45, 4509.89, 7950.72, 4146.40, 7273.82, 4254.01, 4700.82, 0.000, 0.000, 0.000, 21:34:03.584, 1559846043584
222, -3491.39, 4378.64, 4510.76, 7946.40, 4148.51, 7269.90, 4254.79, 4701.62, 0.000, 0.000, 0.000, 21:34:03.584, 1559846043584
223, -3489.15, 4378.10, 4509.64, 7948.70, 4149.33, 7272.39, 4253.34, 4701.82, 0.000, 0.000, 0.000, 21:34:03.584, 1559846043584
224, -3490.38, 4377.92, 4509.98, 7953.82, 4147.99, 7276.63, 4253.78, 4702.45, 0.000, 0.000, 0.000, 21:34:03.585, 1559846043585
225, -3491.66, 4376.76, 4510.94, 7956.89, 4147.72, 7278.49, 4251.84, 4702.56, 0.000, 0.000, 0.000, 21:34:03.586, 1559846043586
226, -3491.50, 4376.99, 4511.27, 7951.95, 4149.47, 7274.78, 4253.49, 4701.94, 0.000, 0.000, 0.000, 21:34:03.586, 1559846043586
227, -3489.04, 4378.84, 4510.76, 7945.80, 4149.56, 7269.39, 4253.16, 4701.98, 0.000, 0.000, 0.000, 21:34:03.586, 1559846043586
228, -3491.68, 4379.69, 4511.88, 7947.70, 4150.47, 7271.83, 4252.31, 4701.56, 0.012, -0.026, 1.020, 21:34:03.586, 1559846043586
229, -3492.88, 4379.56, 4512.53, 7953.58, 4147.23, 7276.54, 4251.70, 4699.68, 0.000, 0.000, 0.000, 21:34:03.587, 1559846043587
230, -3492.62, 4378.95, 4511.21, 7955.77, 4146.23, 7278.53, 4251.28, 4699.72, 0.000, 0.000, 0.000, 21:34:03.587, 1559846043587
231, -3491.99, 4380.23, 4511.88, 7950.60, 4148.35, 7273.68, 4252.55, 4700.59, 0.000, 0.000, 0.000, 21:34:03.587, 1559846043587
232, -3492.01, 4380.27, 4511.27, 7945.67, 4149.89, 7269.08, 4252.89, 4698.63, 0.000, 0.000, 0.000, 21:34:03.587, 1559846043587
233, -3492.33, 4380.58, 4509.15, 7947.21, 4147.79, 7270.49, 4252.84, 4699.54, 0.000, 0.000, 0.000, 21:34:03.587, 1559846043587
234, -3490.83, 4378.57, 4510.34, 7953.04, 4146.11, 7275.74, 4251.91, 4700.10, 0.000, 0.000, 0.000, 21:34:03.587, 1559846043587
235, -3492.21, 4378.55, 4509.38, 7955.70, 4147.50, 7279.02, 4254.07, 4700.04, 0.000, 0.000, 0.000, 21:34:03.587, 1559846043587
236, -3493.85, 4380.03, 4510.11, 7951.48, 4149.80, 7275.29, 4253.83, 4700.68, 0.000, 0.000, 0.000, 21:34:03.588, 1559846043588
237, -3495.08, 4379.09, 4509.82, 7945.67, 4149.11, 7270.15, 4253.38, 4701.71, 0.000, 0.000, 0.000, 21:34:03.588, 1559846043588
238, -3491.77, 4377.75, 4511.34, 7946.65, 4147.05, 7270.84, 4255.17, 4702.67, 0.014, -0.028, 1.020, 21:34:03.588, 1559846043588
239, -3491.81, 4377.79, 4511.45, 7953.00, 4146.05, 7276.45, 4255.91, 4702.99, 0.000, 0.000, 0.000, 21:34:03.588, 1559846043588
240, -3490.47, 4378.06, 4510.31, 7955.66, 4146.27, 7278.53, 4254.23, 4700.93, 0.000, 0.000, 0.000, 21:34:03.588, 1559846043588
241, -3492.84, 4377.32, 4511.36, 7950.14, 4145.85, 7273.66, 4253.11, 4700.91, 0.000, 0.000, 0.000, 21:34:03.588, 1559846043588
242, -3494.45, 4376.65, 4510.94, 7945.08, 4150.23, 7269.37, 4252.71, 4700.66, 0.000, 0.000, 0.000, 21:34:03.589, 1559846043589
243, -3493.26, 4377.66, 4509.40, 7946.22, 4148.95, 7270.55, 4253.78, 4700.59, 0.000, 0.000, 0.000, 21:34:03.589, 1559846043589
244, -3491.79, 4376.27, 4509.55, 7951.54, 4147.21, 7274.33, 4252.40, 4700.19, 0.000, 0.000, 0.000, 21:34:03.589, 1559846043589
245, -3491.59, 4376.34, 4508.88, 7953.89, 4146.72, 7275.94, 4251.06, 4701.20, 0.000, 0.000, 0.000, 21:34:03.589, 1559846043589
246, -3492.59, 4376.65, 4510.67, 7949.98, 4149.62, 7273.73, 4250.25, 4701.44, 0.000, 0.000, 0.000, 21:34:03.589, 1559846043589
247, -3493.58, 4377.88, 4509.84, 7944.35, 4151.12, 7269.19, 4252.62, 4700.08, 0.000, 0.000, 0.000, 21:34:03.589, 1559846043589
248, -3493.11, 4380.58, 4509.40, 7944.88, 4148.98, 7269.46, 4253.18, 4699.70, 0.016, -0.028, 1.016, 21:34:03.589, 1559846043589
249, -3490.49, 4379.85, 4508.28, 7951.66, 4147.72, 7275.02, 4251.64, 4700.44, 0.000, 0.000, 0.000, 21:34:03.590, 1559846043590
250, -3490.49, 4377.34, 4507.79, 7954.85, 4147.54, 7277.48, 4251.48, 4701.64, 0.000, 0.000, 0.000, 21:34:03.590, 1559846043590
251, -3491.83, 4378.66, 4509.64, 7951.05, 4148.51, 7274.78, 4253.07, 4701.89, 0.000, 0.000, 0.000, 21:34:03.590, 1559846043590
252, -3492.66, 4380.03, 4510.49, 7945.22, 4149.06, 7269.26, 4254.90, 4701.82, 0.000, 0.000, 0.000, 21:34:03.590, 1559846043590
253, -3492.77, 4379.47, 4510.02, 7946.40, 4147.95, 7269.99, 4255.62, 4700.95, 0.000, 0.000, 0.000, 21:34:03.590, 1559846043590
254, -3490.60, 4377.30, 4509.49, 7952.26, 4147.32, 7275.49, 4253.67, 4700.80, 0.000, 0.000, 0.000, 21:34:03.591, 1559846043591
255, -3490.25, 4377.97, 4509.08, 7955.88, 4146.83, 7279.47, 4253.89, 4701.76, 0.000, 0.000, 0.000, 21:34:03.591, 1559846043591
0, -3488.70, 4379.15, 4509.93, 7951.16, 4147.50, 7275.02, 4253.89, 4702.85, 0.000, 0.000, 0.000, 21:34:03.591, 1559846043591
1, -3489.73, 4377.61, 4511.16, 7945.33, 4147.05, 7269.37, 4254.52, 4700.73, 0.000, 0.000, 0.000, 21:34:03.591, 1559846043591
2, -3494.16, 4378.55, 4510.38, 7946.45, 4147.10, 7271.00, 4254.39, 4700.42, 0.016, -0.028, 1.018, 21:34:03.591, 1559846043591
3, -3492.33, 4378.77, 4509.93, 7952.35, 4147.01, 7276.01, 4253.87, 4699.72, 0.000, 0.000, 0.000, 21:34:03.591, 1559846043591
4, -3492.50, 4377.30, 4509.58, 7954.49, 4147.14, 7278.13, 4253.49, 4700.21, 0.000, 0.000, 0.000, 21:34:03.591, 1559846043591
5, -3491.74, 4377.66, 4510.69, 7949.42, 4149.38, 7273.77, 4255.57, 4700.19, 0.000, 0.000, 0.000, 21:34:03.591, 1559846043591
6, -3490.69, 4378.89, 4511.41, 7944.06, 4149.82, 7269.10, 4256.02, 4699.70, 0.000, 0.000, 0.000, 21:34:03.591, 1559846043591
7, -3492.35, 4379.11, 4511.27, 7944.32, 4147.92, 7269.64, 4255.97, 4699.79, 0.000, 0.000, 0.000, 21:34:03.592, 1559846043592
8, -3491.66, 4378.89, 4511.32, 7951.34, 4145.31, 7275.58, 4254.05, 4701.09, 0.000, 0.000, 0.000, 21:34:03.592, 1559846043592
9, -3492.17, 4378.21, 4509.33, 7954.43, 4146.56, 7278.04, 4252.22, 4701.11, 0.000, 0.000, 0.000, 21:34:03.592, 1559846043592
10, -3494.36, 4380.11, 4508.48, 7949.38, 4149.09, 7273.46, 4254.34, 4701.20, 0.000, 0.000, 0.000, 21:34:03.592, 1559846043592
11, -3492.71, 4379.85, 4509.60, 7944.35, 4148.71, 7268.47, 4252.78, 4701.71, 0.000, 0.000, 0.000, 21:34:03.592, 1559846043592
12, -3492.97, 4379.80, 4509.78, 7945.37, 4148.01, 7269.01, 4253.25, 4700.55, 0.014, -0.030, 1.016, 21:34:03.592, 1559846043592
13, -3494.25, 4377.95, 4508.28, 7950.92, 4148.10, 7274.08, 4252.78, 4700.39, 0.000, 0.000, 0.000, 21:34:03.593, 1559846043593
14, -3495.66, 4376.94, 4508.12, 7955.57, 4146.16, 7278.96, 4251.48, 4701.73, 0.000, 0.000, 0.000, 21:34:03.593, 1559846043593
15, -3496.28, 4378.19, 4510.54, 7951.43, 4146.99, 7275.85, 4252.78, 4699.61, 0.000, 0.000, 0.000, 21:34:03.593, 1559846043593
16, -3493.26, 4380.90, 4511.34, 7944.95, 4149.36, 7269.90, 4253.38, 4699.36, 0.000, 0.000, 0.000, 21:34:03.593, 1559846043593
17, -3492.08, 4377.39, 4509.49, 7945.17, 4147.84, 7270.08, 4254.12, 4699.77, 0.000, 0.000, 0.000, 21:34:03.593, 1559846043593
18, -3492.33, 4375.42, 4510.25, 7951.10, 4144.73, 7275.38, 4252.71, 4700.82, 0.000, 0.000, 0.000, 21:34:03.593, 1559846043593
19, -3493.94, 4375.67, 4509.38, 7954.49, 4146.09, 7278.38, 4252.35, 4700.91, 0.000, 0.000, 0.000, 21:34:03.593, 1559846043593
20, -3493.35, 4378.46, 4509.93, 7949.17, 4147.46, 7274.02, 4253.56, 4700.21, 0.000, 0.000, 0.000, 21:34:03.598, 1559846043598
21, -3495.01, 4378.39, 4511.63, 7943.32, 4148.86, 7268.88, 4253.76, 4700.53, 0.000, 0.000, 0.000, 21:34:03.598, 1559846043598
22, -3494.00, 4376.99, 4510.31, 7944.28, 4148.15, 7268.97, 4254.65, 4699.95, 0.012, -0.028, 1.012, 21:34:03.598, 1559846043598
23, -3492.55, 4376.38, 4508.48, 7950.58, 4147.39, 7274.17, 4252.67, 4700.46, 0.000, 0.000, 0.000, 21:34:03.598, 1559846043598
24, -3491.54, 4377.57, 4509.73, 7954.63, 4145.53, 7278.09, 4251.59, 4700.26, 0.000, 0.000, 0.000, 21:34:03.598, 1559846043598
25, -3491.81, 4377.95, 4511.45, 7949.98, 4148.24, 7274.82, 4253.78, 4700.04, 0.000, 0.000, 0.000, 21:34:03.599, 1559846043599
26, -3494.90, 4378.55, 4513.53, 7944.39, 4147.12, 7269.55, 4254.97, 4700.15, 0.000, 0.000, 0.000, 21:34:03.599, 1559846043599
27, -3494.00, 4379.73, 4509.04, 7944.90, 4147.21, 7269.57, 4253.38, 4698.96, 0.000, 0.000, 0.000, 21:34:03.599, 1559846043599
28, -3494.65, 4379.67, 4508.55, 7951.05, 4146.76, 7274.91, 4250.97, 4700.26, 0.000, 0.000, 0.000, 21:34:03.599, 1559846043599
29, -3492.66, 4376.09, 4508.86, 7954.27, 4146.16, 7277.79, 4251.39, 4701.98, 0.000, 0.000, 0.000, 21:34:03.599, 1559846043599
30, -3491.61, 4376.92, 4511.23, 7949.87, 4149.58, 7273.84, 4253.27, 4701.94, 0.000, 0.000, 0.000, 21:34:03.599, 1559846043599
31, -3490.76, 4379.40, 4511.86, 7943.36, 4149.76, 7268.63, 4254.88, 4699.21, 0.000, 0.000, 0.000, 21:34:03.599, 1559846043599
32, -3489.87, 4378.06, 4509.24, 7942.94, 4147.46, 7268.74, 4254.81, 4700.66, 0.010, -0.030, 1.018, 21:34:03.599, 1559846043599
33, -3492.21, 4378.82, 4510.34, 7949.82, 4146.38, 7275.54, 4254.45, 4700.19, 0.000, 0.000, 0.000, 21:34:03.599, 1559846043599
34, -3491.45, 4379.96, 4509.67, 7953.71, 4146.92, 7278.58, 4253.74, 4701.98, 0.000, 0.000, 0.000, 21:34:03.599, 1559846043599
35, -3492.01, 4378.82, 4509.49, 7949.33, 4149.11, 7273.62, 4253.63, 4703.28, 0.000, 0.000, 0.000, 21:34:03.600, 1559846043600
36, -3493.04, 4377.23, 4509.38, 7942.94, 4149.29, 7268.32, 4253.85, 4701.67, 0.000, 0.000, 0.000, 21:34:03.600, 1559846043600
37, -3492.37, 4377.46, 4508.70, 7943.43, 4147.59, 7268.83, 4253.85, 4701.49, 0.000, 0.000, 0.000, 21:34:03.600, 1559846043600
38, -3493.49, 4377.48, 4508.10, 7949.04, 4147.77, 7272.90, 4252.06, 4699.86, 0.000, 0.000, 0.000, 21:34:03.600, 1559846043600
39, -3493.22, 4378.21, 4508.41, 7953.24, 4146.85, 7277.59, 4252.67, 4699.43, 0.000, 0.000, 0.000, 21:34:03.600, 1559846043600
40, -3489.93, 4378.71, 4509.75, 7949.49, 4147.39, 7274.73, 4254.19, 4702.23, 0.000, 0.000, 0.000, 21:34:03.600, 1559846043600
41, -3490.81, 4380.41, 4510.87, 7943.56, 4147.61, 7268.63, 4255.57, 4700.53, 0.000, 0.000, 0.000, 21:34:03.601, 1559846043601
42, -3493.94, 4379.78, 4509.89, 7943.65, 4145.71, 7268.70, 4255.53, 4700.82, 0.014, -0.030, 1.024, 21:34:03.601, 1559846043601
43, -3492.82, 4377.46, 4507.05, 7949.35, 4145.11, 7274.13, 4252.62, 4700.71, 0.000, 0.000, 0.000, 21:34:03.601, 1559846043601
44, -3494.40, 4378.51, 4507.16, 7953.06, 4146.02, 7277.55, 4251.93, 4701.04, 0.000, 0.000, 0.000, 21:34:03.601, 1559846043601
45, -3497.18, 4377.95, 4509.53, 7949.15, 4148.64, 7273.68, 4252.26, 4702.00, 0.000, 0.000, 0.000, 21:34:03.602, 1559846043602
46, -3495.12, 4379.02, 4511.83, 7944.35, 4149.82, 7269.50, 4254.34, 4700.57, 0.000, 0.000, 0.000, 21:34:03.603, 1559846043603
47, -3493.62, 4378.91, 4513.06, 7944.77, 4149.24, 7269.99, 4254.12, 4700.44, 0.000, 0.000, 0.000, 21:34:03.603, 1559846043603
48, -3493.35, 4378.97, 4510.13, 7949.87, 4147.17, 7274.78, 4251.99, 4700.10, 0.000, 0.000, 0.000, 21:34:03.603, 1559846043603
49, -3493.00, 4378.06, 4507.21, 7952.77, 4145.04, 7277.15, 4249.94, 4700.64, 0.000, 0.000, 0.000, 21:34:03.603, 1559846043603
50, -3493.71, 4378.55, 4508.75, 7948.91, 4146.94, 7273.41, 4251.79, 4701.26, 0.000, 0.000, 0.000, 21:34:03.603, 1559846043603
51, -3492.57, 4381.23, 4511.32, 7943.50, 4147.72, 7268.56, 4254.05, 4702.27, 0.000, 0.000, 0.000, 21:34:03.603, 1559846043603
52, -3492.93, 4378.95, 4511.61, 7943.85, 4148.62, 7269.10, 4254.27, 4700.53, 0.010, -0.030, 1.024, 21:34:03.603, 1559846043603
53, -3492.95, 4378.44, 4509.53, 7949.58, 4145.98, 7274.46, 4251.95, 4700.57, 0.000, 0.000, 0.000, 21:34:03.603, 1559846043603
54, -3493.06, 4378.13, 4508.73, 7953.44, 4145.49, 7277.86, 4251.84, 4701.20, 0.000, 0.000, 0.000, 21:34:03.603, 1559846043603
55, -3492.21, 4378.62, 4510.43, 7948.97, 4148.13, 7274.15, 4252.75, 4701.33, 0.000, 0.000, 0.000, 21:34:03.604, 1559846043604
56, -3490.90, 4378.80, 4509.78, 7944.15, 4148.89, 7269.10, 4255.53, 4701.64, 0.000, 0.000, 0.000, 21:34:03.604, 1559846043604
57, -3492.10, 4377.41, 4508.64, 7944.46, 4148.77, 7268.74, 4253.96, 4700.66, 0.000, 0.000, 0.000, 21:34:03.604, 1559846043604
58, -3493.62, 4376.54, 4506.56, 7948.88, 4148.71, 7273.06, 4253.83, 4700.33, 0.000, 0.000, 0.000, 21:34:03.604, 1559846043604
59, -3492.66, 4377.59, 4507.34, 7952.35, 4146.45, 7276.95, 4254.30, 4699.48, 0.000, 0.000, 0.000, 21:34:03.604, 1559846043604
60, -3492.06, 4379.06, 4508.44, 7948.35, 4146.54, 7273.77, 4254.86, 4698.74, 0.000, 0.000, 0.000, 21:34:03.604, 1559846043604
61, -3493.60, 4379.89, 4509.71, 7942.40, 4149.76, 7268.07, 4253.94, 4699.45, 0.000, 0.000, 0.000, 21:34:03.604, 1559846043604
62, -3491.99, 4378.68, 4510.78, 7942.71, 4148.73, 7267.74, 4254.52, 4698.98, 0.012, -0.032, 1.030, 21:34:03.604, 1559846043604
63, -3494.07, 4376.69, 4507.83, 7948.64, 4146.00, 7273.28, 4252.33, 4700.84, 0.000, 0.000, 0.000, 21:34:03.604, 1559846043604
64, -3493.40, 4377.88, 4506.51, 7952.62, 4146.85, 7277.44, 4251.26, 4701.91, 0.000, 0.000, 0.000, 21:34:03.605, 1559846043605
65, -3491.79, 4377.63, 4508.97, 7949.02, 4147.99, 7274.58, 4252.82, 4701.20, 0.000, 0.000, 0.000, 21:34:03.605, 1559846043605
66, -3491.05, 4379.47, 4510.54, 7942.83, 4148.35, 7269.30, 4252.73, 4702.54, 0.000, 0.000, 0.000, 21:34:03.605, 1559846043605
67, -3491.95, 4377.72, 4509.26, 7943.25, 4148.17, 7268.88, 4254.27, 4701.64, 0.000, 0.000, 0.000, 21:34:03.605, 1559846043605
68, -3493.67, 4375.64, 4507.30, 7948.15, 4147.84, 7272.59, 4253.04, 4699.81, 0.000, 0.000, 0.000, 21:34:03.605, 1559846043605
69, -3492.59, 4376.18, 4507.48, 7951.74, 4146.40, 7275.83, 4250.81, 4701.60, 0.000, 0.000, 0.000, 21:34:03.605, 1559846043605
70, -3491.54, 4378.51, 4507.70, 7948.59, 4146.63, 7273.35, 4251.35, 4700.57, 0.000, 0.000, 0.000, 21:34:03.609, 1559846043609
71, -3491.61, 4379.89, 4508.68, 7942.74, 4146.87, 7268.43, 4253.29, 4700.15, 0.000, 0.000, 0.000, 21:34:03.610, 1559846043610
72, -3493.78, 4377.72, 4507.34, 7942.87, 4149.44, 7268.47, 4252.73, 4700.95, 0.010, -0.032, 1.030, 21:34:03.610, 1559846043610
73, -3492.26, 4376.34, 4507.30, 7949.04, 4148.93, 7274.15, 4252.69, 4699.32, 0.000, 0.000, 0.000, 21:34:03.611, 1559846043611
74, -3490.60, 4375.82, 4508.86, 7952.66, 4146.47, 7277.37, 4252.40, 4699.12, 0.000, 0.000, 0.000, 21:34:03.611, 1559846043611
0, -15758.52, -2769.69, 27502.05, 23625.86, 3891.82, 9601.50, 18658.48, 30278.54, -0.002, -0.014, 0.506, 21:34:12.612, 1559846052612
1, -15767.39, -2942.45, 27290.25, 23649.78, 3514.43, 9622.49, 18425.84, 30206.48, 0.000, 0.000, 0.000, 21:34:12.613, 1559846052613
2, -15754.02, -2793.66, 27445.62, 23608.43, 3678.94, 9588.81, 18514.04, 30294.68, 0.000, 0.000, 0.000, 21:34:12.613, 1559846052613
3, -15743.43, -2574.07, 27719.54, 23561.11, 4106.19, 9546.05, 18762.32, 30399.78, 0.000, 0.000, 0.000, 21:34:12.613, 1559846052613
4, -15744.99, -2553.66, 27754.85, 23573.85, 4234.16, 9556.38, 18857.74, 30387.51, 0.000, 0.000, 0.000, 21:34:12.613, 1559846052613
5, -15770.74, -2780.98, 27497.49, 23621.81, 3882.14, 9597.12, 18658.34, 30269.47, 0.000, 0.000, 0.000, 21:34:12.613, 1559846052613
6, -15785.49, -2951.03, 27288.80, 23638.06, 3508.17, 9610.13, 18427.85, 30196.49, 0.000, 0.000, 0.000, 21:34:12.614, 1559846052614
7, -15767.86, -2802.51, 27439.36, 23602.62, 3671.21, 9578.95, 18513.37, 30278.74, 0.000, -0.022, 0.760, 21:34:12.614, 1559846052614
8, -15751.25, -2578.65, 27710.96, 23563.34, 4099.22, 9543.32, 18753.69, 30387.08, 0.000, 0.000, 0.000, 21:34:12.614, 1559846052614
9, -15758.52, -2557.84, 27749.22, 23566.99, 4226.45, 9545.60, 18842.21, 30375.86, 0.000, 0.000, 0.000, 21:34:12.614, 1559846052614
10, -15790.63, -2788.92, 27495.88, 23606.44, 3878.74, 9579.58, 18647.52, 30264.91, 0.000, 0.000, 0.000, 21:34:12.614, 1559846052614
11, -15806.91, -2964.44, 27280.08, 23626.33, 3495.12, 9598.04, 18407.73, 30189.25, 0.000, 0.000, 0.000, 21:34:12.614, 1559846052614
12, -15791.22, -2814.13, 27434.20, 23585.02, 3661.04, 9559.86, 18489.43, 30266.63, 0.000, 0.000, 0.000, 21:34:12.614, 1559846052614
13, -15772.42, -2592.38, 27706.06, 23550.58, 4089.32, 9526.76, 18732.42, 30376.38, 0.000, 0.000, 0.000, 21:34:12.615, 1559846052615
14, -15771.39, -2559.68, 27747.43, 23561.31, 4226.63, 9535.28, 18835.81, 30375.46, 0.000, 0.000, 0.000, 21:34:12.615, 1559846052615
15, -15797.85, -2786.73, 27490.83, 23605.99, 3872.91, 9570.86, 18635.95, 30253.00, 0.000, 0.000, 0.000, 21:34:12.615, 1559846052615
16, -15817.57, -2960.38, 27283.32, 23627.27, 3492.33, 9589.79, 18401.59, 30179.62, 0.000, 0.000, 0.000, 21:34:12.615, 1559846052615
17, -15803.38, -2814.67, 27428.85, 23588.91, 3646.96, 9559.48, 18480.31, 30264.55, 0.002, -0.026, 0.892, 21:34:12.615, 1559846052615
18, -15794.01, -2590.48, 27689.61, 23538.55, 4071.62, 9514.53, 18718.49, 30365.49, 0.000, 0.000, 0.000, 21:34:12.615, 1559846052615
19, -15804.22, -2569.80, 27721.04, 23546.29, 4200.54, 9520.90, 18817.75, 30357.87, 0.000, 0.000, 0.000, 21:34:12.615, 1559846052615
20, -15823.20, -2784.33, 27482.18, 23603.35, 3868.77, 9572.11, 18640.08, 30256.08, 0.000, 0.000, 0.000, 21:34:12.615, 1559846052615
21, -15839.76, -2958.59, 27268.30, 23622.24, 3482.13, 9589.55, 18404.74, 30182.63, 0.000, 0.000, 0.000, 21:34:12.615, 1559846052615
22, -15824.90, -2810.53, 27414.06, 23584.73, 3632.34, 9558.34, 18480.31, 30260.01, 0.000, 0.000, 0.000, 21:34:12.615, 1559846052615
23, -15804.34, -2586.12, 27690.48, 23547.70, 4069.45, 9524.79, 18732.35, 30370.63, 0.000, 0.000, 0.000, 21:34:12.616, 1559846052616
24, -15805.63, -2557.91, 27738.56, 23557.82, 4212.23, 9533.60, 18838.81, 30368.06, 0.000, 0.000, 0.000, 21:34:12.616, 1559846052616
25, -15833.10, -2782.68, 27488.26, 23600.07, 3871.05, 9567.57, 18640.30, 30249.98, 0.000, 0.000, 0.000, 21:34:12.616, 1559846052616
26, -15850.07, -2960.06, 27268.52, 23620.56, 3480.75, 9584.56, 18394.14, 30170.58, 0.000, 0.000, 0.000, 21:34:12.620, 1559846052620
27, -15828.32, -2808.25, 27416.45, 23591.13, 3638.84, 9562.63, 18478.28, 30257.76, 0.008, -0.026, 0.958, 21:34:12.620, 1559846052620
28, -15812.27, -2580.93, 27691.53, 23550.40, 4075.37, 9528.97, 18732.13, 30373.94, 0.000, 0.000, 0.000, 21:34:12.620, 1559846052620
29, -15822.38, -2558.25, 27731.45, 23552.55, 4210.82, 9528.75, 18830.99, 30363.82, 0.000, 0.000, 0.000, 21:34:12.620, 1559846052620
30, -15843.97, -2781.72, 27487.10, 23602.75, 3872.08, 9570.32, 18640.68, 30252.15, 0.000, 0.000, 0.000, 21:34:12.620, 1559846052620
31, -15871.55, -2963.35, 27267.07, 23611.29, 3483.45, 9576.07, 18400.63, 30177.29, 0.000, 0.000, 0.000, 21:34:12.621, 1559846052621
32, -15853.96, -2819.36, 27404.91, 23577.04, 3630.88, 9545.33, 18475.55, 30253.89, 0.000, 0.000, 0.000, 21:34:12.621, 1559846052621
33, -15832.88, -2593.90, 27675.24, 23540.37, 4058.88, 9512.88, 18718.11, 30362.74, 0.000, 0.000, 0.000, 21:34:12.621, 1559846052621
34, -15839.36, -2556.79, 27729.82, 23542.51, 4205.82, 9512.66, 18820.66, 30356.13, 0.000, 0.000, 0.000, 21:34:12.622, 1559846052622
35, -15874.95, -2780.96, 27484.69, 23579.35, 3869.22, 9542.32, 18631.83, 30235.54, 0.000, 0.000, 0.000, 21:34:12.622, 1559846052622
36, -15886.86, -2964.22, 27267.27, 23606.03, 3478.91, 9568.69, 18394.86, 30163.97, 0.004, -0.024, 0.996, 21:34:12.622, 1559846052622
37, -15857.87, -2818.53, 27407.13, 23576.75, 3620.22, 9544.89, 18474.54, 30247.74, 0.000, 0.000, 0.000, 21:34:12.622, 1559846052622
38, -15844.19, -2596.94, 27680.13, 23529.55, 4049.24, 9502.44, 18720.17, 30359.55, 0.000, 0.000, 0.000, 21:34:12.622, 1559846052622
39, -15852.79, -2568.80, 27727.43, 23530.48, 4192.54, 9502.04, 18814.40, 30350.38, 0.000, 0.000, 0.000, 21:34:12.622, 1559846052622
40, -15881.34, -2787.40, 27486.19, 23572.37, 3856.23, 9537.44, 18625.02, 30233.53, 0.000, 0.000, 0.000, 21:34:12.622, 1559846052622
41, -15896.78, -2966.32, 27271.61, 23597.72, 3466.89, 9559.59, 18390.75, 30157.29, 0.000, 0.000, 0.000, 21:34:12.622, 1559846052622
42, -15881.76, -2825.15, 27401.85, 23564.86, 3606.03, 9532.06, 18467.17, 30245.06, 0.000, 0.000, 0.000, 21:34:12.622, 1559846052622
43, -15866.99, -2596.36, 27673.27, 23520.96, 4038.36, 9490.62, 18710.82, 30358.38, 0.000, 0.000, 0.000, 21:34:12.622, 1559846052622
44, -15866.41, -2559.63, 27721.26, 23530.71, 4186.19, 9498.75, 18815.59, 30350.90, 0.000, 0.000, 0.000, 21:34:12.622, 1559846052622
45, -15886.41, -2774.30, 27483.82, 23582.45, 3858.07, 9545.20, 18628.26, 30238.85, 0.000, 0.000, 0.000, 21:34:12.623, 1559846052623
46, -15911.63, -2960.06, 27260.25, 23599.96, 3462.82, 9559.42, 18374.88, 30152.73, 0.006, -0.034, 1.004, 21:34:12.623, 1559846052623
47, -15893.36, -2821.82, 27393.49, 23565.46, 3594.81, 9530.69, 18439.74, 30228.79, 0.000, 0.000, 0.000, 21:34:12.623, 1559846052623
48, -15866.18, -2588.31, 27677.18, 23530.57, 4037.82, 9500.92, 18701.66, 30353.94, 0.000, 0.000, 0.000, 21:34:12.623, 1559846052623
49, -15876.18, -2555.70, 27729.42, 23529.88, 4193.37, 9498.51, 18807.52, 30345.93, 0.000, 0.000, 0.000, 21:34:12.623, 1559846052623
50, -15911.63, -2780.69, 27481.56, 23564.08, 3864.01, 9525.35, 18618.35, 30227.34, 0.000, 0.000, 0.000, 21:34:12.623, 1559846052623
51, -15919.72, -2962.08, 27259.92, 23594.01, 3471.92, 9552.13, 18378.70, 30154.69, 0.000, 0.000, 0.000, 21:34:12.623, 1559846052623
52, -15909.28, -2824.79, 27390.30, 23558.16, 3602.83, 9523.36, 18444.26, 30231.25, 0.000, 0.000, 0.000, 21:34:12.624, 1559846052624
53, -15898.73, -2597.70, 27665.11, 23515.67, 4035.61, 9486.75, 18691.29, 30348.95, 0.000, 0.000, 0.000, 21:34:12.624, 1559846052624
54, -15895.76, -2555.61, 27722.76, 23526.84, 4193.25, 9495.98, 18800.83, 30352.46, 0.000, 0.000, 0.000, 21:34:12.624, 1559846052624
55, -15919.69, -2765.69, 27485.63, 23570.74, 3873.36, 9531.45, 18621.15, 30245.31, 0.000, 0.000, 0.000, 21:34:12.624, 1559846052624
56, -15944.26, -2954.48, 27256.07, 23586.72, 3479.43, 9545.76, 18379.79, 30166.47, 0.006, -0.030, 1.020, 21:34:12.624, 1559846052624
57, -15925.08, -2822.94, 27380.24, 23559.01, 3600.26, 9525.15, 18441.87, 30242.13, 0.000, 0.000, 0.000, 21:34:12.624, 1559846052624
58, -15910.40, -2590.39, 27656.44, 23515.08, 4029.59, 9486.82, 18689.39, 30356.53, 0.000, 0.000, 0.000, 21:34:12.624, 1559846052624
59, -15920.41, -2553.44, 27708.09, 23513.52, 4187.73, 9484.63, 18798.55, 30355.52, 0.000, 0.000, 0.000, 21:34:12.625, 1559846052625
60, -15955.84, -2786.73, 27458.65, 23548.19, 3857.78, 9513.46, 18612.88, 30237.64, 0.000, 0.000, 0.000, 21:34:12.625, 1559846052625
61, -15961.67, -2962.88, 27236.25, 23584.31, 3466.15, 9544.80, 18372.89, 30166.03, 0.000, 0.000, 0.000, 21:34:12.625, 1559846052625
62, -15940.46, -2823.41, 27364.66, 23556.32, 3591.34, 9520.86, 18441.26, 30247.65, 0.000, 0.000, 0.000, 21:34:12.625, 1559846052625
63, -15926.40, -2597.07, 27638.40, 23510.08, 4025.62, 9480.29, 18695.83, 30366.59, 0.000, 0.000, 0.000, 21:34:12.625, 1559846052625
64, -15925.13, -2555.81, 27699.15, 23523.04, 4188.49, 9491.51, 18810.69, 30374.28, 0.000, 0.000, 0.000, 21:34:12.625, 1559846052625
65, -15951.10, -2768.62, 27470.14, 23561.06, 3868.08, 9522.98, 18627.79, 30256.19, 0.000, 0.000, 0.000, 21:34:12.625, 1559846052625
66, -15978.19, -2967.51, 27237.63, 23573.76, 3460.39, 9533.26, 18370.67, 30161.24, 0.008, -0.030, 1.020, 21:34:12.625, 1559846052625
67, -15953.15, -2834.74, 27367.90, 23549.15, 3580.03, 9513.71, 18430.42, 30237.13, 0.000, 0.000, 0.000, 21:34:12.626, 1559846052626
68, -15939.12, -2599.55, 27645.44, 23502.21, 4017.82, 9469.56, 18680.45, 30347.50, 0.000, 0.000, 0.000, 21:34:12.626, 1559846052626
69, -15945.53, -2558.87, 27700.22, 23506.99, 4174.93, 9471.06, 18790.31, 30347.34, 0.000, 0.000, 0.000, 21:34:12.626, 1559846052626
70, -15977.81, -2772.78, 27464.06, 23541.95, 3858.67, 9498.42, 18613.77, 30233.95, 0.000, 0.000, 0.000, 21:34:12.626, 1559846052626
71, -15982.55, -2954.43, 27241.84, 23582.30, 3466.96, 9534.78, 18374.99, 30163.25, 0.000, 0.000, 0.000, 21:34:12.626, 1559846052626
72, -15963.79, -2824.95, 27367.72, 23557.89, 3581.53, 9517.10, 18434.36, 30240.48, 0.000, 0.000, 0.000, 21:34:12.626, 1559846052626
73, -15947.88, -2589.87, 27649.84, 23517.74, 4018.31, 9483.35, 18684.78, 30355.43, 0.000, 0.000, 0.000, 21:34:12.627, 1559846052627
74, -15961.04, -2545.39, 27704.79, 23513.88, 4186.35, 9478.10, 18795.60, 30350.52, 0.000, 0.000, 0.000, 21:34:12.627, 1559846052627
75, -15994.26, -2764.51, 27461.26, 23547.92, 3869.38, 9506.55, 18616.81, 30231.85, 0.000, 0.000, 0.000, 21:34:12.627, 1559846052627
76, -16008.07, -2962.03, 27223.28, 23575.14, 3461.55, 9531.30, 18367.21, 30152.73, 0.012, -0.032, 1.026, 21:34:12.628, 1559846052628
77, -15992.40, -2836.08, 27339.58, 23541.82, 3570.18, 9503.49, 18423.45, 30223.67, 0.000, 0.000, 0.000, 21:34:12.628, 1559846052628
78, -15967.62, -2599.02, 27619.76, 23504.15, 4008.29, 9469.63, 18681.23, 30350.85, 0.000, 0.000, 0.000, 21:34:12.628, 1559846052628
79, -15979.75, -2557.87, 27676.49, 23497.72, 4175.73, 9460.06, 18790.26, 30345.89, 0.000, 0.000, 0.000, 21:34:12.628, 1559846052628
80, -15993.30, -2761.80, 27450.69, 23551.09, 3870.41, 9506.17, 18618.15, 30237.13, 0.000, 0.000, 0.000, 21:34:12.629, 1559846052629
81, -16008.74, -2955.17, 27220.85, 23579.21, 3466.91, 9533.35, 18379.23, 30158.96, 0.000, 0.000, 0.000, 21:34:12.629, 1559846052629
82, -16000.58, -2832.57, 27335.65, 23541.53, 3572.77, 9504.10, 18437.17, 30231.00, 0.000, 0.000, 0.000, 21:34:12.629, 1559846052629
83, -15983.31, -2599.04, 27617.46, 23494.77, 4008.70, 9463.19, 18681.72, 30338.54, 0.000, 0.000, 0.000, 21:34:12.629, 1559846052629
84, -15992.81, -2551.94, 27684.60, 23492.22, 4186.57, 9461.02, 18799.02, 30343.10, 0.000, 0.000, 0.000, 21:34:12.629, 1559846052629
85, -16020.50, -2765.38, 27454.22, 23534.38, 3874.94, 9496.41, 18622.27, 30230.80, 0.000, 0.000, 0.000, 21:34:12.629, 1559846052629
86, -16042.27, -2963.06, 27222.70, 23555.65, 3467.22, 9513.44, 18364.84, 30147.83, 0.008, -0.034, 1.026, 21:34:12.630, 1559846052630
87, -16022.60, -2839.25, 27330.77, 23533.57, 3565.10, 9495.07, 18412.79, 30218.87, 0.000, 0.000, 0.000, 21:34:12.631, 1559846052631
88, -16001.21, -2600.07, 27614.22, 23494.77, 4000.36, 9460.35, 18664.22, 30339.47, 0.000, 0.000, 0.000, 21:34:12.631, 1559846052631
89, -16007.42, -2552.70, 27685.18, 23490.01, 4178.75, 9455.03, 18784.49, 30339.79, 0.000, 0.000, 0.000, 21:34:12.633, 1559846052633
90, -16029.91, -2761.49, 27456.35, 23528.12, 3872.73, 9485.16, 18608.63, 30227.40, 0.000, 0.000, 0.000, 21:34:12.633, 1559846052633
91, -16053.45, -2970.01, 27210.86, 23548.81, 3450.62, 9504.81, 18345.04, 30137.88, 0.000, 0.000, 0.000, 21:34:12.634, 1559846052634
92, -16034.60, -2843.07, 27334.39, 23518.97, 3554.31, 9481.74, 18396.29, 30215.98, 0.000, 0.000, 0.000, 21:34:12.634, 1559846052634
93, -16013.53, -2606.41, 27615.89, 23480.87, 3991.02, 9450.18, 18647.97, 30334.47, 0.000, 0.000, 0.000, 21:34:12.635, 1559846052635
94, -16006.51, -2551.25, 27683.93, 23492.69, 4172.06, 9461.56, 18764.69, 30337.48, 0.000, 0.000, 0.000, 21:34:12.635, 1559846052635
95, -16038.11, -2755.57, 27455.16, 23528.21, 3872.26, 9488.83, 18600.54, 30226.13, 0.000, 0.000, 0.000, 21:34:12.635, 1559846052635
96, -16057.89, -2958.61, 27225.65, 23558.40, 3463.76, 9515.76, 18353.38, 30144.32, 0.012, -0.030, 1.026, 21:34:12.635, 1559846052635
97, -16050.09, -2838.83, 27332.92, 23519.91, 3558.71, 9481.07, 18391.26, 30208.29, 0.000, 0.000, 0.000, 21:34:12.635, 1559846052635
