%OpenBCI Raw EEG Data
%Number of channels = 8
%Sample Rate = 250.0 Hz
%First Column = SampleIndex
%Last Column = Timestamp 
%Other Columns = EEG data in microvolts followed by Accel Data (in G) interleaved with Aux Data
0, 23026.83, 26800.70, 34321.26, 34614.09, 26550.81, 22014.08, 25217.62, 23784.18, 0.002, 0.030, -0.514, 19:14:41.939, 1560010481939
1, 23018.36, 26799.00, 34310.30, 34607.34, 26535.90, 22006.68, 25213.19, 23779.48, 0.000, 0.000, 0.000, 19:14:41.940, 1560010481940
2, 23008.97, 26788.92, 34299.24, 34605.82, 26534.80, 21995.30, 25208.10, 23764.66, 0.000, 0.000, 0.000, 19:14:41.941, 1560010481941
3, 23014.74, 26784.50, 34303.63, 34605.95, 26538.31, 21989.85, 25207.45, 23762.94, 0.000, 0.000, 0.000, 19:14:41.941, 1560010481941
4, 23025.83, 26791.89, 34312.05, 34603.85, 26541.20, 22002.14, 25210.11, 23774.16, 0.000, 0.000, 0.000, 19:14:41.942, 1560010481942
5, 23026.59, 26794.22, 34307.29, 34593.59, 26500.74, 22001.25, 25199.96, 23766.21, 0.000, 0.000, 0.000, 19:14:41.942, 1560010481942
6, 23029.63, 26802.74, 34310.30, 34597.55, 26518.20, 22004.91, 25212.45, 23769.60, 0.000, 0.000, 0.000, 19:14:41.942, 1560010481942
7, 23021.16, 26799.49, 34310.44, 34616.86, 26571.95, 22016.96, 25230.74, 23781.45, 0.004, 0.042, -0.768, 19:14:41.942, 1560010481942
8, 23021.25, 26799.27, 34312.54, 34617.15, 26558.07, 22016.74, 25232.91, 23781.70, 0.000, 0.000, 0.000, 19:14:41.942, 1560010481942
9, 23017.78, 26790.91, 34308.00, 34607.72, 26544.53, 22005.76, 25218.91, 23773.16, 0.000, 0.000, 0.000, 19:14:41.943, 1560010481943
10, 23005.62, 26779.94, 34294.41, 34595.40, 26528.21, 21993.51, 25197.48, 23765.02, 0.000, 0.000, 0.000, 19:14:41.943, 1560010481943
11, 23006.74, 26784.29, 34297.21, 34598.89, 26526.96, 21993.40, 25203.56, 23768.64, 0.000, 0.000, 0.000, 19:14:41.943, 1560010481943
12, 23008.26, 26786.06, 34300.72, 34599.20, 26532.23, 21995.01, 25216.07, 23774.86, 0.000, 0.000, 0.000, 19:14:41.943, 1560010481943
13, 23016.98, 26791.52, 34297.86, 34606.02, 26539.19, 22000.31, 25201.50, 23775.86, 0.000, 0.000, 0.000, 19:14:41.943, 1560010481943
14, 23009.80, 26789.28, 34288.11, 34603.20, 26529.91, 22001.92, 25209.39, 23773.07, 0.000, 0.000, 0.000, 19:14:41.943, 1560010481943
15, 23006.52, 26784.12, 34296.25, 34601.71, 26525.55, 22001.96, 25220.41, 23768.93, 0.000, 0.000, 0.000, 19:14:41.944, 1560010481944
16, 23011.81, 26786.87, 34301.16, 34598.18, 26538.47, 22004.08, 25216.16, 23768.96, 0.000, 0.000, 0.000, 19:14:41.944, 1560010481944
17, 23022.18, 26786.84, 34302.77, 34600.07, 26540.44, 21993.56, 25212.63, 23765.51, 0.000, 0.050, -0.902, 19:14:41.944, 1560010481944
18, 23022.34, 26790.98, 34307.31, 34610.76, 26541.53, 22003.48, 25220.86, 23772.42, 0.000, 0.000, 0.000, 19:14:41.944, 1560010481944
19, 23009.67, 26795.11, 34303.58, 34600.52, 26538.16, 22005.63, 25224.70, 23776.62, 0.000, 0.000, 0.000, 19:14:41.945, 1560010481945
20, 22998.36, 26797.88, 34296.31, 34584.50, 26531.30, 22000.80, 25217.93, 23772.06, 0.000, 0.000, 0.000, 19:14:41.945, 1560010481945
21, 22999.74, 26794.89, 34287.39, 34565.36, 26523.21, 21991.75, 25216.99, 23771.26, 0.000, 0.000, 0.000, 19:14:41.945, 1560010481945
22, 23004.48, 26780.67, 34294.04, 34589.05, 26524.90, 21993.18, 25213.48, 23771.44, 0.000, 0.000, 0.000, 19:14:41.945, 1560010481945
23, 22997.73, 26774.39, 34293.23, 34595.31, 26489.81, 21988.84, 25209.73, 23764.11, 0.000, 0.000, 0.000, 19:14:41.945, 1560010481945
24, 22998.00, 26780.50, 34293.07, 34597.39, 26539.43, 22001.78, 25221.28, 23773.85, 0.000, 0.000, 0.000, 19:14:41.946, 1560010481946
25, 23002.04, 26791.00, 34301.12, 34605.28, 26545.94, 21996.51, 25219.43, 23777.05, 0.000, 0.000, 0.000, 19:14:41.946, 1560010481946
26, 22989.39, 26778.95, 34292.00, 34587.91, 26528.64, 21999.35, 25200.27, 23768.93, 0.000, 0.000, 0.000, 19:14:41.946, 1560010481946
27, 22992.43, 26779.49, 34287.29, 34584.00, 26527.34, 21997.94, 25208.92, 23770.74, -0.002, 0.054, -0.960, 19:14:41.946, 1560010481946
28, 23003.77, 26796.10, 34295.67, 34602.58, 26536.44, 22002.01, 25218.80, 23770.56, 0.000, 0.000, 0.000, 19:14:41.946, 1560010481946
29, 23002.13, 26790.87, 34294.44, 34604.28, 26524.23, 21997.45, 25205.21, 23765.25, 0.000, 0.000, 0.000, 19:14:41.946, 1560010481946
30, 22994.94, 26788.61, 34295.15, 34598.22, 26528.37, 21994.41, 25200.12, 23766.56, 0.000, 0.000, 0.000, 19:14:41.947, 1560010481947
31, 22995.76, 26783.83, 34292.00, 34596.39, 26526.92, 21992.80, 25206.53, 23765.56, 0.000, 0.000, 0.000, 19:14:41.947, 1560010481947
32, 22995.79, 26781.70, 34279.71, 34591.54, 26523.56, 21986.45, 25204.36, 23761.87, 0.000, 0.000, 0.000, 19:14:41.947, 1560010481947
33, 23002.65, 26787.87, 34291.15, 34604.52, 26530.38, 21985.15, 25195.71, 23756.46, 0.000, 0.000, 0.000, 19:14:41.948, 1560010481948
34, 23002.94, 26794.13, 34301.79, 34605.08, 26532.93, 21987.14, 25190.93, 23761.54, 0.000, 0.000, 0.000, 19:14:41.948, 1560010481948
35, 22994.33, 26794.80, 34294.30, 34579.54, 26525.66, 21986.72, 25196.47, 23761.02, 0.000, 0.000, 0.000, 19:14:41.948, 1560010481948
36, 22993.33, 26792.77, 34290.97, 34585.88, 26526.56, 21991.12, 25203.18, 23755.81, 0.006, 0.056, -0.990, 19:14:41.948, 1560010481948
37, 22998.22, 26789.64, 34288.07, 34595.25, 26515.67, 21995.08, 25200.34, 23758.54, 0.000, 0.000, 0.000, 19:14:41.948, 1560010481948
38, 22997.62, 26792.45, 34290.95, 34598.22, 26484.38, 21996.44, 25198.46, 23759.54, 0.000, 0.000, 0.000, 19:14:41.949, 1560010481949
39, 22998.16, 26795.29, 34297.19, 34600.30, 26535.23, 22002.63, 25214.13, 23773.83, 0.000, 0.000, 0.000, 19:14:41.949, 1560010481949
40, 22988.63, 26787.27, 34293.77, 34586.51, 26549.92, 21990.49, 25208.99, 23770.05, 0.000, 0.000, 0.000, 19:14:41.949, 1560010481949
41, 22986.00, 26785.39, 34287.15, 34584.20, 26529.71, 21981.84, 25210.06, 23767.19, 0.000, 0.000, 0.000, 19:14:41.950, 1560010481950
42, 22979.45, 26783.67, 34282.41, 34579.54, 26518.67, 21982.25, 25212.48, 23773.72, 0.000, 0.000, 0.000, 19:14:41.950, 1560010481950
43, 22984.12, 26778.57, 34291.69, 34575.60, 26527.70, 21974.42, 25218.02, 23773.74, 0.000, 0.000, 0.000, 19:14:41.950, 1560010481950
44, 22990.69, 26772.20, 34298.80, 34605.66, 26532.41, 21994.76, 25210.64, 23766.97, 0.000, 0.000, 0.000, 19:14:41.950, 1560010481950
45, 22976.03, 26758.35, 34284.58, 34573.14, 26513.37, 21976.57, 25183.55, 23753.69, 0.000, 0.000, 0.000, 19:14:41.950, 1560010481950
46, 22993.19, 26760.27, 34286.86, 34576.70, 26518.82, 21976.88, 25190.48, 23754.05, 0.006, 0.060, -1.004, 19:14:41.951, 1560010481951
47, 23004.17, 26778.13, 34297.10, 34610.31, 26532.08, 21997.67, 25208.95, 23768.53, 0.000, 0.000, 0.000, 19:14:41.951, 1560010481951
48, 22977.28, 26772.54, 34276.78, 34597.66, 26511.58, 21985.24, 25204.23, 23763.46, 0.000, 0.000, 0.000, 19:14:41.951, 1560010481951
49, 22968.16, 26769.65, 34285.68, 34605.04, 26514.62, 21980.73, 25209.64, 23766.86, 0.000, 0.000, 0.000, 19:14:41.951, 1560010481951
50, 22966.73, 26768.81, 34296.31, 34598.49, 26508.88, 21971.45, 25187.06, 23752.21, 0.000, 0.000, 0.000, 19:14:41.952, 1560010481952
51, 22966.06, 26775.20, 34288.67, 34583.64, 26522.98, 21986.81, 25188.69, 23752.84, 0.000, 0.000, 0.000, 19:14:41.952, 1560010481952
52, 22973.46, 26769.99, 34283.69, 34579.91, 26521.26, 21982.07, 25182.23, 23754.79, 0.000, 0.000, 0.000, 19:14:41.952, 1560010481952
53, 22982.35, 26767.02, 34284.42, 34579.33, 26487.76, 21967.47, 25184.07, 23757.00, 0.000, 0.000, 0.000, 19:14:41.952, 1560010481952
54, 22977.01, 26768.89, 34284.31, 34588.86, 26487.06, 21979.21, 25178.88, 23742.58, 0.000, 0.000, 0.000, 19:14:41.952, 1560010481952
55, 22967.02, 26768.67, 34276.49, 34585.14, 26537.26, 21979.83, 25176.80, 23745.51, 0.000, 0.000, 0.000, 19:14:41.952, 1560010481952
56, 22964.20, 26760.27, 34269.45, 34577.90, 26506.35, 21969.35, 25182.03, 23744.44, 0.006, 0.062, -1.022, 19:14:41.953, 1560010481953
57, 22970.42, 26760.27, 34276.38, 34585.01, 26505.10, 21967.67, 25186.68, 23748.08, 0.000, 0.000, 0.000, 19:14:41.953, 1560010481953
58, 22972.21, 26758.26, 34278.93, 34574.59, 26510.53, 21968.79, 25202.17, 23759.03, 0.000, 0.000, 0.000, 19:14:41.953, 1560010481953
59, 22977.35, 26770.08, 34279.91, 34568.38, 26514.94, 21970.15, 25207.71, 23768.69, 0.000, 0.000, 0.000, 19:14:41.953, 1560010481953
60, 22973.30, 26768.87, 34277.76, 34579.11, 26512.05, 21970.18, 25199.36, 23753.29, 0.000, 0.000, 0.000, 19:14:41.953, 1560010481953
61, 22965.37, 26763.40, 34263.97, 34562.75, 26501.41, 21956.54, 25189.28, 23752.37, 0.000, 0.000, 0.000, 19:14:41.953, 1560010481953
62, 22971.09, 26767.49, 34275.48, 34569.07, 26513.04, 21972.43, 25200.83, 23754.49, 0.000, 0.000, 0.000, 19:14:41.954, 1560010481954
63, 22968.56, 26764.92, 34281.83, 34579.69, 26518.73, 21974.38, 25207.07, 23758.09, 0.000, 0.000, 0.000, 19:14:41.954, 1560010481954
64, 22970.31, 26764.74, 34282.57, 34582.26, 26516.37, 21973.60, 25203.38, 23765.78, 0.000, 0.000, 0.000, 19:14:41.954, 1560010481954
65, 22959.20, 26755.42, 34271.55, 34584.03, 26503.78, 21971.70, 25196.65, 23753.04, 0.000, 0.000, 0.000, 19:14:41.954, 1560010481954
66, 22950.35, 26747.53, 34260.66, 34568.92, 26506.37, 21958.20, 25194.48, 23743.10, 0.008, 0.066, -1.032, 19:14:41.955, 1560010481955
67, 22953.97, 26756.24, 34258.20, 34575.31, 26502.89, 21962.33, 25183.87, 23742.16, 0.000, 0.000, 0.000, 19:14:41.955, 1560010481955
68, 22970.46, 26762.66, 34282.08, 34578.53, 26511.04, 21963.79, 25171.17, 23747.30, 0.000, 0.000, 0.000, 19:14:41.955, 1560010481955
69, 22971.09, 26764.38, 34286.84, 34581.03, 26523.50, 21966.09, 25202.51, 23765.47, 0.000, 0.000, 0.000, 19:14:41.955, 1560010481955
70, 22968.27, 26760.65, 34283.69, 34587.27, 26493.21, 21972.14, 25200.41, 23758.92, 0.000, 0.000, 0.000, 19:14:41.956, 1560010481956
71, 22969.28, 26764.43, 34277.79, 34585.81, 26493.48, 21965.82, 25191.11, 23759.41, 0.000, 0.000, 0.000, 19:14:41.956, 1560010481956
72, 22976.18, 26769.63, 34282.48, 34593.57, 26539.50, 21969.66, 25193.48, 23751.66, 0.000, 0.000, 0.000, 19:14:41.956, 1560010481956
73, 22966.06, 26757.50, 34276.58, 34592.86, 26521.97, 21971.45, 25191.82, 23738.92, 0.000, 0.000, 0.000, 19:14:41.956, 1560010481956
74, 22964.03, 26759.20, 34275.30, 34561.27, 26514.98, 21959.45, 25193.61, 23740.99, 0.000, 0.000, 0.000, 19:14:41.956, 1560010481956
75, 22963.53, 26763.71, 34276.15, 34569.88, 26507.07, 21961.33, 25181.81, 23738.74, 0.000, 0.000, 0.000, 19:14:41.956, 1560010481956
76, 22972.03, 26777.59, 34289.56, 34585.19, 26517.62, 21973.06, 25179.15, 23741.24, 0.010, 0.064, -1.030, 19:14:41.956, 1560010481956
77, 22963.80, 26764.31, 34276.89, 34577.66, 26508.41, 21966.40, 25185.23, 23749.60, 0.000, 0.000, 0.000, 19:14:41.956, 1560010481956
78, 22973.97, 26768.76, 34281.34, 34586.21, 26510.08, 21971.50, 25200.14, 23757.98, 0.000, 0.000, 0.000, 19:14:41.957, 1560010481957
79, 22968.34, 26762.64, 34276.60, 34574.79, 26506.51, 21963.40, 25180.54, 23747.79, 0.000, 0.000, 0.000, 19:14:41.957, 1560010481957
80, 22957.45, 26754.08, 34267.97, 34553.02, 26501.32, 21953.19, 25164.60, 23740.79, 0.000, 0.000, 0.000, 19:14:41.957, 1560010481957
81, 22957.50, 26749.76, 34267.68, 34564.42, 26504.38, 21951.27, 25182.17, 23745.15, 0.000, 0.000, 0.000, 19:14:41.957, 1560010481957
82, 22957.90, 26751.60, 34273.96, 34569.45, 26514.76, 21959.65, 25200.12, 23756.28, 0.000, 0.000, 0.000, 19:14:41.957, 1560010481957
83, 22959.46, 26753.12, 34269.83, 34572.29, 26505.44, 21957.08, 25197.52, 23748.57, 0.000, 0.000, 0.000, 19:14:41.957, 1560010481957
84, 22949.79, 26745.36, 34259.32, 34557.38, 26498.86, 21942.48, 25184.83, 23735.76, 0.000, 0.000, 0.000, 19:14:41.958, 1560010481958
85, 22940.91, 26740.73, 34250.23, 34557.09, 26491.60, 21951.20, 25173.25, 23728.92, 0.000, 0.000, 0.000, 19:14:41.958, 1560010481958
86, 22946.37, 26744.78, 34249.91, 34564.16, 26493.01, 21955.36, 25163.06, 23728.57, 0.008, 0.060, -1.030, 19:14:41.958, 1560010481958
87, 22959.11, 26751.84, 34267.88, 34569.30, 26473.36, 21956.79, 25172.87, 23727.29, 0.000, 0.000, 0.000, 19:14:41.958, 1560010481958
88, 22958.95, 26755.84, 34269.45, 34574.53, 26479.42, 21960.54, 25188.61, 23749.22, 0.000, 0.000, 0.000, 19:14:41.958, 1560010481958
89, 22965.08, 26760.51, 34278.32, 34577.36, 26529.66, 21968.66, 25195.20, 23756.37, 0.000, 0.000, 0.000, 19:14:41.958, 1560010481958
90, 22963.38, 26763.78, 34283.95, 34583.36, 26519.85, 21966.15, 25173.38, 23723.76, 0.000, 0.000, 0.000, 19:14:41.958, 1560010481958
91, 22961.25, 26759.13, 34278.99, 34579.13, 26516.61, 21968.08, 25188.47, 23756.48, 0.000, 0.000, 0.000, 19:14:41.958, 1560010481958
92, 22949.85, 26744.91, 34262.52, 34565.30, 26502.11, 21955.36, 25179.44, 23758.14, 0.000, 0.000, 0.000, 19:14:41.958, 1560010481958
93, 22955.22, 26752.53, 34264.08, 34570.08, 26496.85, 21957.21, 25181.54, 23746.09, 0.000, 0.000, 0.000, 19:14:41.958, 1560010481958
94, 22960.02, 26756.74, 34271.55, 34577.10, 26508.83, 21963.07, 25186.68, 23747.41, 0.000, 0.000, 0.000, 19:14:41.959, 1560010481959
95, 22949.32, 26743.97, 34263.43, 34566.93, 26508.50, 21952.79, 25172.18, 23737.06, 0.000, 0.000, 0.000, 19:14:41.959, 1560010481959
96, 22949.16, 26739.48, 34264.15, 34564.98, 26505.32, 21957.93, 25182.84, 23756.86, 0.004, 0.060, -1.026, 19:14:41.959, 1560010481959
97, 22942.14, 26728.95, 34263.17, 34556.82, 26499.96, 21949.81, 25170.12, 23742.47, 0.000, 0.000, 0.000, 19:14:41.959, 1560010481959
98, 22945.58, 26725.33, 34262.88, 34555.80, 26501.77, 21945.34, 25162.45, 23733.73, 0.000, 0.000, 0.000, 19:14:41.959, 1560010481959
99, 22941.29, 26730.47, 34259.21, 34553.00, 26499.27, 21941.37, 25169.65, 23734.40, 0.000, 0.000, 0.000, 19:14:41.960, 1560010481960
100, 22899.61, 26699.25, 34233.17, 34528.68, 26475.37, 21927.40, 25161.69, 23729.71, 0.000, 0.000, 0.000, 19:14:41.960, 1560010481960
101, 22871.20, 26672.36, 34216.30, 34535.52, 26454.61, 21936.20, 25156.33, 23728.30, 0.000, 0.000, 0.000, 19:14:41.960, 1560010481960
102, 22878.33, 26678.01, 34222.64, 34544.98, 26456.44, 21941.54, 25161.76, 23728.34, 0.000, 0.000, 0.000, 19:14:41.960, 1560010481960
103, 22877.81, 26681.99, 34229.15, 34550.66, 26516.12, 21949.17, 25175.08, 23740.99, 0.000, 0.000, 0.000, 19:14:41.960, 1560010481960
104, 22857.65, 26666.50, 34215.63, 34549.07, 26499.06, 21954.64, 25180.42, 23748.68, 0.000, 0.000, 0.000, 19:14:41.960, 1560010481960
105, 22838.36, 26646.70, 34213.43, 34537.20, 26493.21, 21948.12, 25185.79, 23754.79, 0.000, 0.000, 0.000, 19:14:41.960, 1560010481960
106, 22831.17, 26644.57, 34205.79, 34540.77, 26482.99, 21958.33, 25184.36, 23756.80, 0.000, 0.064, -1.028, 19:14:41.960, 1560010481960
107, 22814.80, 26627.10, 34196.92, 34536.93, 26478.55, 21957.48, 25177.81, 23752.55, 0.000, 0.000, 0.000, 19:14:41.961, 1560010481961
108, 22810.85, 26621.42, 34205.16, 34542.07, 26492.47, 21965.86, 25192.92, 23766.72, 0.000, 0.000, 0.000, 19:14:41.961, 1560010481961
109, 22799.65, 26613.46, 34205.63, 34544.51, 26500.90, 21958.96, 25199.80, 23774.63, 0.000, 0.000, 0.000, 19:14:41.961, 1560010481961
110, 22798.91, 26608.99, 34204.83, 34553.79, 26497.84, 21968.81, 25190.33, 23765.49, 0.000, 0.000, 0.000, 19:14:41.961, 1560010481961
111, 22781.46, 26595.85, 34193.23, 34549.74, 26490.08, 21971.38, 25182.23, 23758.54, 0.000, 0.000, 0.000, 19:14:41.961, 1560010481961
112, 22775.40, 26590.28, 34193.09, 34548.60, 26495.06, 21970.09, 25177.76, 23756.17, 0.000, 0.000, 0.000, 19:14:41.961, 1560010481961
113, 22781.43, 26602.69, 34198.30, 34561.41, 26500.94, 21976.99, 25190.95, 23761.74, 0.000, 0.000, 0.000, 19:14:41.962, 1560010481962
114, 22780.09, 26610.49, 34197.18, 34567.29, 26496.65, 21976.48, 25204.29, 23771.93, 0.000, 0.000, 0.000, 19:14:41.962, 1560010481962
115, 22785.50, 26618.85, 34208.96, 34572.87, 26511.56, 21985.11, 25212.52, 23786.77, 0.000, 0.000, 0.000, 19:14:41.962, 1560010481962
116, 22781.63, 26615.92, 34202.14, 34568.27, 26508.77, 21990.29, 25211.40, 23778.41, 0.004, 0.062, -1.036, 19:14:41.962, 1560010481962
117, 22784.38, 26619.50, 34198.01, 34565.96, 26499.24, 21976.97, 25206.69, 23773.47, 0.000, 0.000, 0.000, 19:14:41.962, 1560010481962
118, 22794.89, 26632.51, 34208.47, 34565.07, 26503.98, 21976.68, 25212.16, 23777.54, 0.000, 0.000, 0.000, 19:14:41.962, 1560010481962
119, 22805.35, 26645.49, 34212.09, 34579.02, 26475.51, 21984.04, 25204.83, 23774.92, 0.000, 0.000, 0.000, 19:14:41.962, 1560010481962
120, 22815.70, 26666.26, 34214.75, 34592.23, 26506.20, 21988.39, 25197.66, 23773.65, 0.000, 0.000, 0.000, 19:14:42.418, 1560010482418
121, 22821.91, 26673.23, 34214.80, 34588.79, 26528.55, 21986.25, 25198.64, 23774.07, 0.000, 0.000, 0.000, 19:14:42.418, 1560010482418
122, 22837.74, 26684.14, 34225.86, 34594.62, 26514.71, 21988.71, 25189.59, 23767.66, 0.000, 0.000, 0.000, 19:14:42.418, 1560010482418
123, 22843.46, 26689.35, 34213.30, 34589.84, 26493.14, 21979.59, 25190.37, 23763.84, 0.000, 0.000, 0.000, 19:14:42.419, 1560010482419
124, 22869.28, 26715.47, 34234.73, 34606.71, 26509.79, 21991.99, 25201.66, 23771.73, 0.000, 0.000, 0.000, 19:14:42.419, 1560010482419
125, 22882.06, 26731.43, 34251.68, 34615.92, 26522.98, 22003.53, 25208.61, 23787.80, 0.000, 0.000, 0.000, 19:14:42.419, 1560010482419
126, 22889.77, 26741.20, 34243.65, 34609.86, 26513.75, 21997.31, 25210.96, 23781.45, 0.004, 0.062, -1.034, 19:14:42.420, 1560010482420
127, 22909.84, 26760.18, 34252.62, 34619.18, 26517.44, 21997.56, 25209.77, 23764.75, 0.000, 0.000, 0.000, 19:14:42.421, 1560010482421
128, 22922.29, 26770.64, 34255.81, 34626.74, 26521.89, 22003.55, 25219.76, 23780.15, 0.000, 0.000, 0.000, 19:14:42.421, 1560010482421
129, 22929.49, 26781.81, 34253.58, 34622.70, 26515.61, 21995.84, 25218.78, 23784.69, 0.000, 0.000, 0.000, 19:14:42.421, 1560010482421
130, 22937.52, 26789.28, 34258.45, 34612.52, 26519.07, 21995.19, 25213.93, 23784.09, 0.000, 0.000, 0.000, 19:14:42.422, 1560010482422
131, 22941.92, 26785.39, 34254.00, 34588.45, 26509.30, 21979.32, 25202.82, 23769.98, 0.000, 0.000, 0.000, 19:14:42.422, 1560010482422
132, 22950.97, 26792.57, 34261.80, 34603.63, 26511.43, 21967.03, 25195.96, 23761.00, 0.000, 0.000, 0.000, 19:14:42.424, 1560010482424
133, 22967.85, 26807.09, 34278.32, 34623.30, 26528.03, 21994.21, 25201.97, 23768.04, 0.000, 0.000, 0.000, 19:14:42.425, 1560010482425
134, 22979.40, 26812.06, 34282.52, 34620.04, 26517.93, 21993.51, 25208.74, 23776.40, 0.000, 0.000, 0.000, 19:14:42.425, 1560010482425
135, 22985.06, 26817.11, 34286.57, 34619.57, 26482.08, 21993.87, 25206.69, 23771.84, 0.000, 0.000, 0.000, 19:14:42.425, 1560010482425
136, 22973.84, 26809.26, 34268.91, 34603.54, 26519.76, 21976.01, 25173.85, 23745.80, 0.006, 0.062, -1.020, 19:14:42.426, 1560010482426
137, 22979.00, 26811.43, 34268.78, 34604.72, 26522.51, 21973.06, 25165.47, 23736.39, 0.000, 0.000, 0.000, 19:14:42.426, 1560010482426
138, 22992.28, 26819.95, 34277.43, 34605.51, 26520.75, 21971.63, 25181.12, 23743.03, 0.000, 0.000, 0.000, 19:14:42.426, 1560010482426
139, 22996.19, 26826.27, 34280.51, 34605.66, 26516.77, 21966.42, 25179.28, 23747.12, 0.000, 0.000, 0.000, 19:14:42.426, 1560010482426
140, 22986.89, 26819.10, 34268.96, 34606.67, 26507.74, 21976.86, 25163.53, 23744.12, 0.000, 0.000, 0.000, 19:14:42.427, 1560010482427
141, 22991.58, 26817.64, 34271.32, 34607.43, 26504.36, 21973.11, 25171.64, 23748.19, 0.000, 0.000, 0.000, 19:14:42.427, 1560010482427
142, 22993.95, 26817.91, 34275.55, 34600.23, 26506.26, 21962.76, 25181.92, 23730.58, 0.000, 0.000, 0.000, 19:14:42.427, 1560010482427
143, 22997.51, 26820.82, 34276.96, 34602.38, 26515.58, 21967.09, 25183.75, 23731.88, 0.000, 0.000, 0.000, 19:14:42.427, 1560010482427
144, 23002.80, 26825.22, 34286.88, 34609.44, 26528.26, 21974.98, 25195.11, 23748.35, 0.000, 0.000, 0.000, 19:14:42.427, 1560010482427
145, 23009.40, 26828.75, 34295.69, 34613.26, 26532.48, 21979.95, 25198.15, 23747.41, 0.000, 0.000, 0.000, 19:14:42.428, 1560010482428
146, 23006.87, 26829.07, 34290.41, 34612.86, 26533.04, 21981.24, 25199.36, 23748.93, 0.006, 0.060, -1.026, 19:14:42.428, 1560010482428
147, 23011.59, 26829.98, 34289.74, 34608.86, 26528.03, 21977.33, 25199.45, 23751.77, 0.000, 0.000, 0.000, 19:14:42.428, 1560010482428
148, 23016.75, 26835.84, 34300.79, 34609.89, 26530.92, 21973.22, 25207.38, 23760.80, 0.000, 0.000, 0.000, 19:14:42.428, 1560010482428
149, 23015.14, 26839.59, 34303.64, 34621.58, 26526.31, 21981.55, 25217.55, 23767.93, 0.000, 0.000, 0.000, 19:14:42.428, 1560010482428
150, 23008.19, 26838.68, 34291.98, 34624.04, 26525.02, 21986.81, 25206.46, 23758.72, 0.000, 0.000, 0.000, 19:14:42.429, 1560010482429
151, 22992.66, 26822.23, 34273.76, 34602.20, 26480.74, 21964.01, 25178.99, 23738.15, 0.000, 0.000, 0.000, 19:14:42.429, 1560010482429
152, 22988.93, 26810.94, 34273.00, 34588.38, 26475.89, 21947.31, 25174.17, 23737.39, 0.000, 0.000, 0.000, 19:14:42.429, 1560010482429
153, 22990.51, 26813.82, 34278.48, 34583.71, 26531.47, 21948.76, 25182.93, 23739.81, 0.000, 0.000, 0.000, 19:14:42.429, 1560010482429
154, 22989.24, 26815.90, 34275.37, 34603.74, 26509.15, 21966.11, 25182.68, 23742.27, 0.000, 0.000, 0.000, 19:14:42.429, 1560010482429
155, 22987.05, 26819.90, 34268.64, 34609.39, 26496.61, 21971.27, 25183.33, 23751.03, 0.004, 0.060, -1.032, 19:14:42.430, 1560010482430
156, 22991.18, 26824.24, 34282.19, 34615.86, 26506.24, 21975.41, 25185.52, 23748.46, 0.000, 0.000, 0.000, 19:14:42.430, 1560010482430
157, 22980.01, 26820.21, 34272.53, 34607.27, 26500.63, 21957.91, 25178.30, 23740.50, 0.000, 0.000, 0.000, 19:14:42.439, 1560010482439
158, 22982.15, 26822.38, 34273.67, 34607.27, 26504.38, 21960.61, 25178.08, 23742.22, 0.000, 0.000, 0.000, 19:14:42.439, 1560010482439
159, 22984.54, 26824.86, 34277.54, 34606.04, 26507.56, 21960.05, 25169.67, 23735.23, 0.000, 0.000, 0.000, 19:14:42.440, 1560010482440
160, 22979.22, 26820.64, 34270.27, 34601.91, 26495.11, 21953.08, 25164.35, 23725.50, 0.000, 0.000, 0.000, 19:14:42.440, 1560010482440
161, 22972.88, 26813.78, 34254.96, 34586.64, 26475.39, 21938.59, 25152.28, 23711.91, 0.000, 0.000, 0.000, 19:14:42.440, 1560010482440
162, 22984.07, 26829.38, 34269.36, 34599.80, 26493.03, 21944.07, 25164.02, 23727.74, 0.000, 0.000, 0.000, 19:14:42.440, 1560010482440
163, 22987.90, 26835.82, 34275.46, 34604.81, 26499.65, 21955.87, 25159.55, 23731.14, 0.000, 0.000, 0.000, 19:14:42.440, 1560010482440
164, 22983.20, 26830.01, 34264.39, 34601.95, 26482.55, 21953.08, 25161.96, 23728.81, 0.000, 0.000, 0.000, 19:14:42.441, 1560010482441
165, 22982.09, 26830.72, 34278.95, 34595.71, 26464.93, 21949.99, 25165.52, 23734.58, 0.004, 0.064, -1.030, 19:14:42.441, 1560010482441
166, 22976.54, 26822.79, 34272.24, 34593.04, 26474.99, 21945.37, 25157.16, 23725.35, 0.000, 0.000, 0.000, 19:14:42.442, 1560010482442
167, 22974.64, 26815.79, 34266.68, 34590.20, 26510.46, 21947.98, 25169.47, 23728.59, 0.000, 0.000, 0.000, 19:14:42.442, 1560010482442
168, 22979.13, 26821.60, 34269.96, 34592.36, 26496.88, 21944.21, 25170.92, 23727.18, 0.000, 0.000, 0.000, 19:14:42.442, 1560010482442
169, 22980.90, 26823.52, 34276.80, 34594.64, 26502.48, 21945.61, 25171.97, 23725.68, 0.000, 0.000, 0.000, 19:14:42.442, 1560010482442
170, 22975.65, 26814.36, 34274.21, 34591.74, 26496.05, 21942.26, 25159.66, 23721.68, 0.000, 0.000, 0.000, 19:14:42.442, 1560010482442
171, 22970.53, 26800.72, 34264.57, 34580.92, 26485.36, 21933.23, 25137.20, 23707.64, 0.000, 0.000, 0.000, 19:14:42.442, 1560010482442
172, 22968.43, 26800.79, 34260.06, 34580.74, 26484.13, 21930.75, 25135.72, 23697.30, 0.000, 0.000, 0.000, 19:14:42.443, 1560010482443
173, 22965.03, 26801.48, 34251.52, 34580.56, 26485.54, 21933.72, 25152.06, 23711.58, 0.000, 0.000, 0.000, 19:14:42.443, 1560010482443
174, 22969.97, 26809.02, 34270.90, 34585.37, 26496.81, 21942.84, 25173.05, 23734.33, 0.000, 0.000, 0.000, 19:14:42.443, 1560010482443
175, 22970.51, 26816.75, 34278.50, 34592.81, 26502.98, 21949.28, 25184.78, 23737.28, 0.008, 0.062, -1.032, 19:14:42.443, 1560010482443
176, 22971.51, 26821.76, 34273.74, 34593.86, 26507.22, 21953.95, 25185.68, 23743.79, 0.000, 0.000, 0.000, 19:14:42.443, 1560010482443
177, 22972.83, 26822.49, 34270.39, 34581.07, 26501.55, 21951.74, 25182.64, 23743.50, 0.000, 0.000, 0.000, 19:14:42.444, 1560010482444
178, 22972.65, 26817.62, 34267.30, 34590.06, 26501.32, 21947.94, 25187.26, 23742.63, 0.000, 0.000, 0.000, 19:14:42.444, 1560010482444
179, 22967.20, 26809.20, 34259.93, 34585.39, 26494.48, 21940.81, 25176.04, 23733.33, 0.000, 0.000, 0.000, 19:14:42.444, 1560010482444
180, 22961.19, 26803.65, 34255.90, 34581.66, 26493.05, 21939.49, 25163.79, 23726.91, 0.000, 0.000, 0.000, 19:14:42.444, 1560010482444
181, 22958.41, 26798.51, 34249.89, 34566.82, 26484.40, 21929.16, 25154.79, 23724.81, 0.000, 0.000, 0.000, 19:14:42.444, 1560010482444
182, 22962.48, 26801.22, 34256.33, 34577.21, 26473.16, 21929.94, 25163.86, 23723.69, 0.000, 0.000, 0.000, 19:14:42.445, 1560010482445
183, 22954.17, 26794.20, 34252.50, 34571.91, 26437.11, 21919.71, 25148.26, 23708.58, 0.000, 0.000, 0.000, 19:14:42.445, 1560010482445
184, 22960.63, 26805.48, 34257.49, 34570.23, 26506.04, 21924.67, 25162.27, 23719.80, 0.000, 0.000, 0.000, 19:14:42.445, 1560010482445
185, 22961.28, 26810.18, 34254.92, 34558.63, 26489.83, 21918.70, 25153.24, 23720.88, 0.008, 0.064, -1.024, 19:14:42.445, 1560010482445
186, 22948.94, 26797.75, 34246.13, 34564.36, 26478.10, 21919.57, 25150.99, 23714.80, 0.000, 0.000, 0.000, 19:14:42.445, 1560010482445
187, 22947.39, 26793.35, 34245.31, 34575.96, 26481.72, 21923.13, 25161.76, 23713.32, 0.000, 0.000, 0.000, 19:14:42.445, 1560010482445
188, 22957.90, 26800.30, 34255.46, 34580.34, 26490.48, 21926.32, 25169.83, 23724.32, 0.000, 0.000, 0.000, 19:14:42.445, 1560010482445
189, 22965.37, 26808.99, 34263.95, 34575.00, 26496.79, 21936.98, 25173.36, 23735.23, 0.000, 0.000, 0.000, 19:14:42.450, 1560010482450
190, 22958.93, 26803.23, 34259.55, 34569.90, 26492.29, 21930.50, 25172.89, 23732.79, 0.000, 0.000, 0.000, 19:14:42.450, 1560010482450
191, 22945.88, 26796.37, 34243.63, 34571.66, 26481.68, 21921.96, 25165.45, 23727.11, 0.000, 0.000, 0.000, 19:14:42.451, 1560010482451
192, 22947.95, 26799.09, 34245.84, 34576.92, 26474.84, 21936.63, 25169.38, 23726.58, 0.000, 0.000, 0.000, 19:14:42.451, 1560010482451
193, 22959.13, 26812.46, 34264.17, 34577.54, 26486.79, 21942.48, 25181.34, 23747.72, 0.000, 0.000, 0.000, 19:14:42.451, 1560010482451
194, 22960.58, 26803.56, 34264.44, 34569.74, 26489.43, 21931.20, 25177.50, 23739.09, 0.000, 0.000, 0.000, 19:14:42.453, 1560010482453
195, 22971.18, 26811.16, 34265.69, 34584.54, 26488.09, 21947.00, 25180.33, 23740.97, 0.012, 0.062, -1.026, 19:14:42.453, 1560010482453
196, 22966.97, 26810.76, 34251.41, 34582.46, 26444.28, 21944.92, 25173.18, 23738.80, 0.000, 0.000, 0.000, 19:14:42.454, 1560010482454
197, 22958.01, 26826.32, 34258.99, 34577.79, 26514.33, 21945.43, 25180.83, 23748.82, 0.000, 0.000, 0.000, 19:14:42.455, 1560010482455
198, 22962.97, 26826.83, 34273.20, 34600.57, 26517.71, 21961.28, 25184.18, 23751.77, 0.000, 0.000, 0.000, 19:14:42.455, 1560010482455
199, 22969.72, 26833.02, 34271.53, 34598.40, 26503.38, 21953.28, 25182.28, 23749.69, 0.000, 0.000, 0.000, 19:14:42.455, 1560010482455
200, 22965.52, 26830.05, 34265.58, 34597.26, 26496.43, 21951.13, 25179.11, 23748.71, 0.000, 0.000, 0.000, 19:14:42.455, 1560010482455
201, 22972.59, 26833.45, 34267.04, 34600.48, 26493.75, 21947.69, 25167.93, 23737.82, 0.000, 0.000, 0.000, 19:14:42.455, 1560010482455
202, 22987.34, 26846.19, 34272.33, 34616.55, 26491.20, 21944.76, 25156.17, 23725.77, 0.000, 0.000, 0.000, 19:14:42.455, 1560010482455
203, 22972.83, 26831.32, 34275.30, 34607.43, 26502.04, 21951.49, 25169.70, 23731.56, 0.000, 0.000, 0.000, 19:14:42.455, 1560010482455
204, 22934.43, 26786.08, 34260.86, 34579.87, 26495.49, 21944.45, 25172.18, 23734.98, 0.000, 0.000, 0.000, 19:14:42.456, 1560010482456
205, 22919.77, 26767.17, 34247.95, 34556.18, 26487.64, 21931.26, 25159.23, 23736.23, 0.008, 0.068, -1.030, 19:14:42.456, 1560010482456
206, 22903.77, 26778.24, 34242.58, 34526.80, 26481.52, 21920.73, 25162.72, 23736.17, 0.000, 0.000, 0.000, 19:14:42.457, 1560010482457
207, 22875.40, 26749.05, 34227.52, 34520.17, 26481.63, 21923.69, 25174.39, 23733.66, 0.000, 0.000, 0.000, 19:14:42.457, 1560010482457
208, 22869.81, 26704.48, 34228.99, 34527.61, 26476.18, 21919.71, 25177.81, 23735.56, 0.000, 0.000, 0.000, 19:14:42.457, 1560010482457
209, 22863.08, 26673.21, 34234.55, 34526.83, 26493.75, 21918.95, 25191.89, 23743.07, 0.000, 0.000, 0.000, 19:14:42.458, 1560010482458
210, 22825.36, 26632.44, 34224.39, 34518.18, 26471.68, 21907.86, 25184.07, 23736.39, 0.000, 0.000, 0.000, 19:14:42.458, 1560010482458
211, 22791.04, 26593.97, 34209.46, 34498.66, 26426.58, 21888.50, 25165.25, 23715.67, 0.000, 0.000, 0.000, 19:14:42.458, 1560010482458
212, 22797.13, 26615.70, 34205.48, 34498.51, 26484.13, 21884.95, 25160.11, 23720.50, 0.000, 0.000, 0.000, 19:14:42.459, 1560010482459
213, 22786.46, 26608.74, 34208.88, 34473.41, 26487.62, 21885.62, 25162.54, 23727.52, 0.000, 0.000, 0.000, 19:14:42.459, 1560010482459
214, 22771.89, 26595.87, 34217.50, 34474.84, 26481.83, 21889.71, 25153.69, 23722.93, 0.000, 0.000, 0.000, 19:14:42.459, 1560010482459
215, 22754.12, 26570.43, 34212.56, 34477.57, 26473.63, 21890.65, 25145.91, 23709.19, 0.010, 0.060, -1.030, 19:14:42.459, 1560010482459
216, 22750.12, 26557.04, 34188.15, 34462.01, 26444.15, 21864.56, 25113.06, 23681.20, 0.000, 0.000, 0.000, 19:14:42.459, 1560010482459
217, 22756.27, 26557.43, 34177.07, 34452.00, 26433.42, 21854.28, 25116.10, 23679.57, 0.000, 0.000, 0.000, 19:14:42.459, 1560010482459
218, 22770.39, 26582.62, 34194.95, 34458.59, 26458.59, 21858.80, 25149.87, 23692.71, 0.000, 0.000, 0.000, 19:14:42.460, 1560010482460
219, 22792.63, 26596.52, 34213.66, 34461.76, 26470.77, 21864.61, 25156.15, 23695.91, 0.000, 0.000, 0.000, 19:14:42.461, 1560010482461
220, 22783.91, 26589.84, 34201.14, 34460.33, 26452.42, 21862.20, 25150.52, 23697.18, 0.000, 0.000, 0.000, 19:14:42.461, 1560010482461
221, 22786.53, 26593.30, 34196.00, 34459.95, 26446.70, 21857.90, 25141.80, 23691.48, 0.000, 0.000, 0.000, 19:14:42.461, 1560010482461
222, 22798.38, 26602.26, 34194.86, 34456.04, 26446.47, 21853.77, 25136.17, 23686.90, 0.000, 0.000, 0.000, 19:14:42.461, 1560010482461
223, 22802.00, 26607.81, 34196.36, 34460.91, 26445.98, 21850.86, 25133.66, 23689.74, 0.000, 0.000, 0.000, 19:14:42.462, 1560010482462
224, 22804.43, 26615.18, 34191.93, 34463.82, 26446.83, 21849.39, 25117.06, 23679.84, 0.000, 0.000, 0.000, 19:14:42.462, 1560010482462
225, 22808.35, 26618.78, 34202.44, 34460.42, 26448.10, 21848.18, 25128.84, 23682.83, 0.006, 0.064, -1.036, 19:14:42.462, 1560010482462
226, 22813.98, 26617.44, 34207.36, 34460.11, 26446.14, 21848.38, 25133.22, 23689.32, 0.000, 0.000, 0.000, 19:14:42.462, 1560010482462
227, 22817.42, 26619.12, 34210.98, 34477.54, 26447.28, 21861.99, 25147.30, 23694.59, 0.000, 0.000, 0.000, 19:14:42.462, 1560010482462
228, 22827.19, 26632.64, 34209.16, 34467.57, 26417.44, 21859.60, 25141.76, 23690.75, 0.000, 0.000, 0.000, 19:14:42.462, 1560010482462
229, 22847.48, 26646.21, 34209.72, 34474.21, 26448.95, 21854.73, 25133.35, 23691.82, 0.000, 0.000, 0.000, 19:14:42.462, 1560010482462
230, 22842.50, 26641.94, 34206.39, 34470.52, 26470.03, 21847.02, 25136.23, 23695.33, 0.000, 0.000, 0.000, 19:14:42.462, 1560010482462
231, 22827.37, 26646.50, 34205.90, 34480.49, 26446.31, 21861.30, 25145.06, 23694.61, 0.000, 0.000, 0.000, 19:14:42.463, 1560010482463
232, 22835.66, 26662.26, 34215.13, 34483.06, 26460.31, 21874.73, 25146.72, 23703.15, 0.000, 0.000, 0.000, 19:14:42.463, 1560010482463
233, 22845.07, 26661.79, 34220.72, 34483.64, 26461.02, 21869.15, 25146.07, 23705.83, 0.000, 0.000, 0.000, 19:14:42.463, 1560010482463
234, 22845.45, 26642.41, 34216.90, 34487.04, 26450.74, 21861.39, 25134.27, 23686.68, 0.000, 0.000, 0.000, 19:14:42.463, 1560010482463
235, 22837.27, 26638.72, 34208.18, 34482.68, 26440.53, 21854.87, 25130.58, 23689.12, 0.010, 0.062, -1.036, 19:14:42.463, 1560010482463
236, 22829.09, 26641.89, 34195.44, 34477.09, 26431.34, 21853.48, 25122.42, 23688.13, 0.000, 0.000, 0.000, 19:14:42.463, 1560010482463
237, 22831.70, 26647.44, 34199.55, 34482.91, 26440.86, 21853.48, 25124.84, 23689.23, 0.000, 0.000, 0.000, 19:14:42.463, 1560010482463
238, 22842.88, 26669.41, 34217.79, 34467.71, 26448.28, 21850.97, 25139.52, 23698.71, 0.000, 0.000, 0.000, 19:14:42.463, 1560010482463
239, 22843.50, 26679.58, 34216.18, 34468.91, 26445.71, 21848.74, 25133.06, 23698.71, 0.000, 0.000, 0.000, 19:14:42.463, 1560010482463
240, 22841.31, 26664.24, 34207.73, 34472.04, 26448.04, 21850.35, 25129.55, 23696.71, 0.000, 0.000, 0.000, 19:14:42.901, 1560010482901
241, 22832.96, 26640.22, 34193.27, 34472.85, 26436.48, 21849.81, 25117.50, 23677.63, 0.000, 0.000, 0.000, 19:14:42.902, 1560010482902
242, 22832.04, 26642.00, 34191.89, 34472.71, 26402.15, 21843.11, 25121.71, 23672.87, 0.000, 0.000, 0.000, 19:14:42.902, 1560010482902
243, 22843.59, 26657.07, 34197.34, 34457.20, 26403.76, 21830.19, 25114.15, 23670.68, 0.000, 0.000, 0.000, 19:14:42.902, 1560010482902
244, 22850.19, 26651.88, 34204.18, 34470.43, 26468.35, 21845.97, 25128.81, 23682.23, 0.000, 0.000, 0.000, 19:14:42.902, 1560010482902
245, 22840.78, 26634.45, 34204.38, 34477.14, 26442.65, 21845.50, 25123.76, 23682.14, 0.008, 0.058, -1.034, 19:14:42.903, 1560010482903
246, 22842.16, 26633.11, 34212.50, 34476.92, 26431.74, 21842.79, 25117.24, 23677.27, 0.000, 0.000, 0.000, 19:14:42.903, 1560010482903
247, 22847.15, 26647.64, 34208.58, 34487.78, 26429.71, 21855.27, 25127.14, 23683.75, 0.000, 0.000, 0.000, 19:14:42.904, 1560010482904
248, 22855.91, 26671.20, 34205.43, 34490.89, 26437.02, 21862.17, 25136.05, 23697.45, 0.000, 0.000, 0.000, 19:14:42.904, 1560010482904
249, 22868.20, 26673.72, 34217.57, 34499.54, 26449.00, 21870.35, 25138.56, 23702.41, 0.000, 0.000, 0.000, 19:14:42.905, 1560010482905
250, 22856.27, 26658.54, 34206.46, 34497.03, 26441.42, 21866.44, 25141.24, 23701.28, 0.000, 0.000, 0.000, 19:14:42.905, 1560010482905
251, 22851.48, 26646.79, 34205.79, 34485.48, 26428.21, 21857.17, 25128.97, 23698.28, 0.000, 0.000, 0.000, 19:14:42.905, 1560010482905
252, 22827.81, 26637.65, 34204.16, 34479.33, 26424.66, 21845.83, 25111.49, 23682.97, 0.000, 0.000, 0.000, 19:14:42.905, 1560010482905
253, 22835.08, 26659.15, 34205.72, 34468.16, 26433.31, 21841.01, 25112.36, 23682.19, 0.000, 0.000, 0.000, 19:14:42.906, 1560010482906
254, 22849.23, 26685.99, 34203.04, 34463.68, 26432.77, 21838.30, 25119.54, 23688.04, 0.000, 0.000, 0.000, 19:14:42.906, 1560010482906
255, 22833.56, 26663.69, 34210.66, 34467.28, 26437.33, 21842.19, 25115.22, 23690.95, 0.008, 0.062, -1.034, 19:14:42.907, 1560010482907
0, 22825.58, 26634.16, 34201.79, 34468.09, 26427.49, 21849.14, 25106.51, 23684.36, 0.000, 0.000, 0.000, 19:14:42.907, 1560010482907
1, 22826.27, 26626.36, 34194.34, 34469.77, 26427.70, 21842.77, 25117.06, 23678.83, 0.000, 0.000, 0.000, 19:14:42.907, 1560010482907
2, 22838.86, 26635.86, 34205.01, 34478.86, 26434.74, 21854.04, 25141.67, 23700.25, 0.000, 0.000, 0.000, 19:14:42.907, 1560010482907
3, 22845.34, 26645.38, 34214.60, 34481.59, 26395.17, 21853.21, 25134.40, 23701.43, 0.000, 0.000, 0.000, 19:14:42.908, 1560010482908
4, 22835.53, 26636.93, 34209.48, 34473.00, 26434.49, 21847.24, 25122.42, 23693.21, 0.000, 0.000, 0.000, 19:14:42.908, 1560010482908
5, 22830.36, 26627.03, 34194.86, 34467.80, 26439.70, 21842.55, 25115.78, 23685.43, 0.000, 0.000, 0.000, 19:14:42.908, 1560010482908
6, 22838.39, 26625.24, 34188.42, 34460.31, 26418.55, 21834.28, 25110.22, 23678.07, 0.000, 0.000, 0.000, 19:14:42.908, 1560010482908
7, 22849.47, 26646.43, 34192.22, 34473.30, 26407.22, 21835.17, 25112.72, 23676.64, 0.000, 0.000, 0.000, 19:14:42.908, 1560010482908
8, 22851.30, 26646.83, 34209.48, 34475.06, 26436.35, 21835.62, 25121.93, 23686.43, 0.000, 0.000, 0.000, 19:14:42.908, 1560010482908
9, 22837.98, 26633.58, 34209.59, 34473.16, 26439.41, 21847.47, 25126.00, 23694.70, 0.006, 0.058, -1.028, 19:14:42.909, 1560010482909
10, 22838.32, 26631.03, 34207.46, 34468.54, 26435.88, 21850.30, 25119.63, 23690.14, 0.000, 0.000, 0.000, 19:14:42.909, 1560010482909
11, 22837.69, 26630.52, 34200.87, 34463.10, 26428.32, 21845.10, 25116.16, 23687.80, 0.000, 0.000, 0.000, 19:14:42.909, 1560010482909
12, 22842.07, 26633.09, 34203.06, 34469.54, 26435.90, 21844.25, 25113.59, 23689.63, 0.000, 0.000, 0.000, 19:14:42.910, 1560010482910
13, 22844.78, 26632.91, 34205.79, 34471.86, 26437.60, 21843.76, 25118.76, 23685.54, 0.000, 0.000, 0.000, 19:14:42.910, 1560010482910
14, 22841.38, 26636.71, 34200.89, 34473.18, 26431.99, 21845.70, 25122.38, 23685.20, 0.000, 0.000, 0.000, 19:14:42.910, 1560010482910
15, 22841.89, 26628.21, 34206.73, 34472.98, 26434.18, 21842.77, 25109.48, 23683.26, 0.000, 0.000, 0.000, 19:14:42.910, 1560010482910
16, 22846.07, 26629.96, 34205.25, 34466.07, 26436.57, 21844.65, 25118.22, 23684.60, 0.000, 0.000, 0.000, 19:14:42.912, 1560010482912
17, 22848.29, 26633.13, 34204.96, 34465.94, 26434.07, 21839.84, 25118.55, 23683.82, 0.000, 0.000, 0.000, 19:14:42.912, 1560010482912
18, 22843.84, 26631.03, 34189.59, 34455.84, 26426.85, 21824.76, 25112.61, 23679.04, 0.014, 0.062, -1.030, 19:14:42.912, 1560010482912
19, 22847.71, 26629.87, 34201.36, 34463.30, 26430.36, 21828.24, 25116.30, 23684.42, 0.000, 0.000, 0.000, 19:14:42.913, 1560010482913
20, 22840.98, 26627.23, 34200.83, 34451.70, 26426.09, 21849.54, 25116.41, 23684.91, 0.000, 0.000, 0.000, 19:14:42.913, 1560010482913
21, 22840.67, 26631.57, 34196.29, 34454.12, 26385.92, 21840.13, 25107.36, 23674.45, 0.000, 0.000, 0.000, 19:14:42.913, 1560010482913
22, 22849.54, 26635.14, 34196.92, 34457.67, 26425.21, 21836.63, 25110.55, 23682.48, 0.000, 0.000, 0.000, 19:14:42.913, 1560010482913
23, 22846.95, 26639.46, 34196.11, 34451.88, 26452.48, 21833.92, 25112.74, 23691.26, 0.000, 0.000, 0.000, 19:14:42.914, 1560010482914
24, 22846.88, 26635.52, 34204.83, 34465.56, 26423.29, 21831.06, 25111.60, 23679.75, 0.000, 0.000, 0.000, 19:14:42.914, 1560010482914
25, 22841.54, 26632.42, 34203.22, 34459.77, 26422.04, 21837.10, 25111.98, 23676.22, 0.000, 0.000, 0.000, 19:14:42.914, 1560010482914
26, 22845.58, 26635.54, 34205.21, 34464.78, 26432.63, 21840.56, 25110.13, 23672.69, 0.000, 0.000, 0.000, 19:14:42.915, 1560010482915
27, 22848.15, 26631.19, 34201.30, 34465.67, 26434.02, 21838.88, 25106.84, 23674.14, 0.000, 0.000, 0.000, 19:14:42.915, 1560010482915
28, 22851.89, 26628.91, 34193.23, 34453.52, 26431.92, 21830.68, 25101.46, 23681.43, 0.010, 0.062, -1.028, 19:14:42.915, 1560010482915
29, 22847.26, 26630.72, 34195.91, 34460.44, 26430.69, 21832.65, 25106.48, 23680.78, 0.000, 0.000, 0.000, 19:14:42.915, 1560010482915
30, 22834.65, 26625.22, 34192.27, 34466.19, 26426.42, 21839.40, 25109.26, 23677.74, 0.000, 0.000, 0.000, 19:14:42.916, 1560010482916
31, 22832.78, 26625.84, 34196.45, 34456.49, 26427.52, 21840.78, 25116.34, 23681.72, 0.000, 0.000, 0.000, 19:14:42.916, 1560010482916
32, 22839.77, 26637.31, 34204.00, 34459.64, 26428.99, 21838.97, 25113.28, 23679.30, 0.000, 0.000, 0.000, 19:14:42.916, 1560010482916
33, 22844.80, 26649.22, 34210.66, 34465.23, 26432.81, 21837.18, 25108.52, 23677.00, 0.000, 0.000, 0.000, 19:14:42.916, 1560010482916
34, 22830.90, 26635.54, 34191.71, 34449.09, 26411.36, 21824.60, 25085.45, 23665.69, 0.000, 0.000, 0.000, 19:14:42.917, 1560010482917
35, 22831.26, 26632.42, 34190.03, 34455.39, 26421.13, 21836.31, 25097.74, 23675.26, 0.000, 0.000, 0.000, 19:14:42.917, 1560010482917
36, 22838.05, 26632.51, 34204.25, 34463.13, 26435.65, 21842.21, 25114.80, 23680.55, 0.000, 0.000, 0.000, 19:14:42.917, 1560010482917
37, 22842.50, 26631.99, 34209.70, 34470.99, 26439.50, 21832.29, 25104.54, 23670.92, 0.000, 0.000, 0.000, 19:14:42.918, 1560010482918
38, 22844.13, 26641.13, 34209.25, 34473.56, 26420.10, 21829.67, 25101.54, 23674.30, 0.012, 0.058, -1.036, 19:14:42.918, 1560010482918
39, 22842.92, 26639.68, 34213.79, 34480.36, 26403.98, 21854.28, 25112.12, 23686.43, 0.000, 0.000, 0.000, 19:14:42.918, 1560010482918
40, 22836.38, 26635.19, 34205.70, 34478.53, 26456.82, 21851.65, 25110.75, 23685.34, 0.000, 0.000, 0.000, 19:14:42.918, 1560010482918
41, 22844.29, 26642.27, 34197.48, 34475.17, 26438.54, 21846.17, 25102.13, 23682.05, 0.000, 0.000, 0.000, 19:14:42.919, 1560010482919
42, 22842.88, 26643.70, 34207.36, 34467.11, 26435.68, 21838.17, 25101.50, 23684.60, 0.000, 0.000, 0.000, 19:14:42.919, 1560010482919
43, 22839.28, 26638.90, 34202.10, 34452.40, 26428.03, 21833.03, 25102.82, 23680.67, 0.000, 0.000, 0.000, 19:14:42.919, 1560010482919
44, 22842.03, 26637.09, 34205.50, 34473.00, 26426.11, 21840.63, 25112.27, 23685.72, 0.000, 0.000, 0.000, 19:14:42.920, 1560010482920
45, 22837.80, 26633.20, 34203.13, 34472.00, 26433.02, 21842.39, 25100.96, 23678.28, 0.000, 0.000, 0.000, 19:14:42.920, 1560010482920
46, 22836.13, 26631.57, 34195.69, 34461.72, 26422.09, 21825.20, 25094.39, 23668.82, 0.000, 0.000, 0.000, 19:14:42.920, 1560010482920
47, 22838.77, 26636.97, 34191.69, 34461.76, 26414.42, 21824.55, 25101.10, 23672.53, 0.000, 0.000, 0.000, 19:14:42.920, 1560010482920
48, 22842.90, 26649.63, 34200.76, 34471.21, 26425.44, 21838.41, 25103.89, 23683.97, 0.010, 0.060, -1.036, 19:14:42.921, 1560010482921
49, 22838.86, 26647.57, 34197.52, 34481.05, 26421.75, 21837.74, 25096.40, 23685.56, 0.000, 0.000, 0.000, 19:14:42.921, 1560010482921
50, 22834.16, 26632.15, 34193.47, 34467.04, 26423.18, 21833.09, 25101.97, 23685.76, 0.000, 0.000, 0.000, 19:14:42.921, 1560010482921
51, 22834.16, 26637.29, 34192.00, 34453.89, 26420.45, 21836.98, 25111.92, 23680.06, 0.000, 0.000, 0.000, 19:14:42.921, 1560010482921
52, 22838.61, 26640.87, 34191.77, 34467.24, 26424.30, 21836.83, 25108.07, 23681.47, 0.000, 0.000, 0.000, 19:14:42.922, 1560010482922
53, 22837.89, 26639.84, 34178.14, 34464.06, 26415.83, 21830.10, 25097.77, 23677.78, 0.000, 0.000, 0.000, 19:14:42.922, 1560010482922
54, 22840.20, 26645.20, 34194.77, 34468.38, 26422.02, 21840.13, 25093.83, 23676.89, 0.000, 0.000, 0.000, 19:14:42.923, 1560010482923
55, 22831.01, 26641.42, 34192.69, 34461.56, 26418.80, 21834.17, 25096.45, 23677.07, 0.000, 0.000, 0.000, 19:14:42.923, 1560010482923
56, 22838.92, 26643.46, 34185.83, 34447.14, 26417.73, 21825.72, 25107.69, 23682.83, 0.000, 0.000, 0.000, 19:14:42.923, 1560010482923
57, 22834.18, 26640.44, 34178.74, 34455.08, 26411.49, 21822.70, 25106.64, 23676.51, 0.000, 0.000, 0.000, 19:14:42.924, 1560010482924
58, 22844.35, 26643.35, 34190.25, 34463.37, 26380.94, 21820.53, 25092.71, 23667.66, 0.010, 0.060, -1.036, 19:14:42.924, 1560010482924
59, 22852.04, 26654.43, 34200.58, 34469.74, 26401.41, 21825.67, 25089.68, 23670.59, 0.000, 0.000, 0.000, 19:14:42.924, 1560010482924
60, 22828.69, 26652.31, 34198.95, 34473.30, 26449.89, 21836.11, 25097.39, 23682.59, 0.000, 0.000, 0.000, 19:14:42.924, 1560010482924
61, 22809.69, 26635.16, 34194.05, 34468.00, 26431.43, 21836.85, 25105.12, 23682.34, 0.000, 0.000, 0.000, 19:14:42.924, 1560010482924
62, 22818.13, 26629.71, 34198.23, 34471.80, 26425.19, 21835.37, 25095.82, 23674.81, 0.000, 0.000, 0.000, 19:14:42.925, 1560010482925
63, 22825.67, 26639.84, 34203.98, 34476.85, 26433.37, 21828.49, 25114.82, 23682.23, 0.000, 0.000, 0.000, 19:14:42.925, 1560010482925
64, 22816.84, 26630.25, 34195.35, 34451.73, 26422.26, 21823.04, 25110.20, 23681.85, 0.000, 0.000, 0.000, 19:14:42.925, 1560010482925
65, 22817.91, 26627.14, 34190.41, 34461.16, 26417.10, 21830.81, 25101.39, 23674.65, 0.000, 0.000, 0.000, 19:14:42.925, 1560010482925
66, 22824.93, 26634.52, 34184.15, 34470.21, 26412.81, 21832.29, 25098.62, 23674.59, 0.000, 0.000, 0.000, 19:14:42.925, 1560010482925
67, 22827.70, 26639.88, 34188.27, 34468.94, 26417.53, 21832.83, 25108.92, 23688.13, 0.000, 0.000, 0.000, 19:14:42.926, 1560010482926
68, 22823.39, 26637.94, 34192.29, 34462.39, 26421.17, 21825.99, 25097.23, 23681.85, 0.012, 0.062, -1.034, 19:14:42.926, 1560010482926
69, 22819.59, 26634.18, 34176.91, 34454.99, 26410.69, 21818.52, 25078.72, 23657.15, 0.000, 0.000, 0.000, 19:14:42.926, 1560010482926
70, 22814.87, 26624.57, 34166.07, 34445.82, 26400.54, 21809.58, 25073.16, 23650.51, 0.000, 0.000, 0.000, 19:14:42.926, 1560010482926
71, 22820.75, 26630.67, 34184.69, 34451.79, 26411.87, 21807.68, 25089.07, 23660.91, 0.000, 0.000, 0.000, 19:14:42.927, 1560010482927
72, 22827.48, 26639.46, 34190.95, 34468.42, 26425.06, 21826.23, 25096.94, 23669.85, 0.000, 0.000, 0.000, 19:14:42.927, 1560010482927
73, 22829.65, 26641.47, 34187.57, 34446.77, 26399.11, 21822.25, 25105.57, 23676.73, 0.000, 0.000, 0.000, 19:14:42.928, 1560010482928
74, 22823.99, 26642.50, 34179.75, 34461.61, 26366.85, 21825.79, 25096.02, 23673.34, 0.000, 0.000, 0.000, 19:14:42.928, 1560010482928
75, 22830.25, 26649.96, 34198.75, 34473.99, 26444.37, 21828.96, 25094.55, 23676.04, 0.000, 0.000, 0.000, 19:14:42.928, 1560010482928
76, 22828.48, 26648.26, 34191.15, 34468.09, 26428.21, 21831.73, 25094.28, 23673.69, 0.000, 0.000, 0.000, 19:14:42.928, 1560010482928
77, 22829.71, 26642.09, 34188.76, 34469.59, 26424.32, 21828.51, 25090.77, 23671.48, 0.000, 0.000, 0.000, 19:14:42.928, 1560010482928
78, 22834.85, 26640.35, 34188.55, 34471.39, 26420.54, 21828.65, 25104.54, 23680.64, 0.008, 0.060, -1.030, 19:14:42.928, 1560010482928
79, 22824.66, 26634.74, 34187.15, 34472.45, 26413.88, 21823.04, 25110.57, 23683.64, 0.000, 0.000, 0.000, 19:14:42.929, 1560010482929
80, 22802.71, 26621.84, 34171.32, 34438.38, 26401.81, 21807.95, 25095.96, 23665.54, 0.000, 0.000, 0.000, 19:14:42.929, 1560010482929
81, 22805.51, 26619.63, 34166.09, 34435.27, 26398.06, 21805.76, 25081.12, 23658.94, 0.000, 0.000, 0.000, 19:14:42.929, 1560010482929
82, 22809.24, 26623.86, 34182.72, 34445.22, 26415.20, 21814.18, 25087.48, 23664.82, 0.000, 0.000, 0.000, 19:14:42.929, 1560010482929
83, 22811.94, 26623.97, 34193.65, 34454.52, 26425.77, 21818.92, 25097.86, 23672.73, 0.000, 0.000, 0.000, 19:14:42.930, 1560010482930
84, 22812.99, 26624.97, 34187.17, 34454.27, 26417.79, 21819.62, 25099.53, 23675.53, 0.000, 0.000, 0.000, 19:14:42.930, 1560010482930
85, 22809.46, 26623.45, 34178.54, 34446.77, 26406.37, 21812.69, 25088.85, 23662.81, 0.000, 0.000, 0.000, 19:14:42.930, 1560010482930
86, 22804.97, 26621.57, 34172.55, 34452.33, 26405.43, 21807.66, 25084.07, 23657.38, 0.000, 0.000, 0.000, 19:14:42.931, 1560010482931
87, 22810.65, 26631.50, 34186.61, 34457.45, 26413.70, 21820.42, 25092.43, 23662.94, 0.000, 0.000, 0.000, 19:14:42.931, 1560010482931
88, 22819.54, 26637.20, 34189.68, 34443.39, 26417.66, 21820.85, 25092.83, 23666.43, 0.006, 0.060, -1.022, 19:14:42.931, 1560010482931
89, 22810.20, 26625.13, 34179.23, 34426.60, 26405.48, 21802.14, 25082.50, 23659.83, 0.000, 0.000, 0.000, 19:14:42.932, 1560010482932
90, 22812.66, 26629.26, 34173.54, 34438.76, 26391.69, 21800.28, 25072.73, 23654.02, 0.000, 0.000, 0.000, 19:14:42.932, 1560010482932
91, 22824.44, 26632.53, 34174.50, 34460.18, 26364.33, 21821.90, 25068.29, 23649.60, 0.000, 0.000, 0.000, 19:14:42.932, 1560010482932
92, 22812.66, 26628.15, 34172.39, 34457.25, 26412.70, 21819.46, 25086.57, 23665.06, 0.000, 0.000, 0.000, 19:14:42.933, 1560010482933
93, 22809.46, 26629.17, 34176.60, 34447.77, 26422.94, 21810.12, 25079.75, 23671.17, 0.000, 0.000, 0.000, 19:14:42.933, 1560010482933
94, 22804.28, 26634.65, 34174.61, 34443.88, 26398.66, 21806.05, 25080.69, 23663.39, 0.000, 0.000, 0.000, 19:14:42.933, 1560010482933
95, 22798.09, 26632.30, 34174.77, 34458.14, 26406.37, 21824.64, 25089.23, 23669.45, 0.000, 0.000, 0.000, 19:14:42.933, 1560010482933
96, 22787.92, 26619.59, 34168.91, 34449.11, 26404.14, 21812.04, 25078.43, 23659.34, 0.000, 0.000, 0.000, 19:14:42.933, 1560010482933
97, 22776.63, 26622.92, 34164.39, 34444.91, 26395.71, 21810.14, 25071.15, 23652.15, 0.000, 0.000, 0.000, 19:14:42.934, 1560010482934
98, 22786.82, 26623.81, 34173.13, 34448.93, 26404.07, 21812.40, 25080.69, 23661.98, 0.006, 0.060, -1.024, 19:14:42.934, 1560010482934
99, 22781.70, 26612.84, 34172.11, 34446.77, 26398.44, 21806.94, 25079.73, 23663.12, 0.000, 0.000, 0.000, 19:14:42.935, 1560010482935
100, 22773.65, 26616.05, 34172.11, 34441.09, 26400.14, 21795.43, 25075.17, 23658.96, 0.000, 0.000, 0.000, 19:14:42.935, 1560010482935
101, 22778.08, 26617.75, 34164.48, 34440.82, 26391.22, 21804.71, 25078.28, 23657.15, 0.000, 0.000, 0.000, 19:14:42.935, 1560010482935
102, 22775.78, 26606.76, 34160.19, 34434.05, 26392.69, 21799.68, 25086.44, 23659.41, 0.000, 0.000, 0.000, 19:14:42.937, 1560010482937
103, 22761.03, 26599.36, 34157.29, 34433.26, 26400.07, 21800.46, 25087.51, 23663.14, 0.000, 0.000, 0.000, 19:14:42.937, 1560010482937
104, 22759.19, 26603.69, 34162.56, 34428.73, 26393.14, 21790.40, 25081.21, 23663.30, 0.000, 0.000, 0.000, 19:14:43.377, 1560010483377
105, 22752.53, 26601.55, 34158.52, 34422.09, 26392.56, 21798.78, 25072.26, 23658.52, 0.000, 0.000, 0.000, 19:14:43.377, 1560010483377
106, 22757.90, 26603.20, 34157.40, 34394.59, 26393.90, 21780.48, 25067.01, 23651.21, 0.000, 0.000, 0.000, 19:14:43.377, 1560010483377
107, 22765.18, 26609.15, 34163.05, 34435.01, 26398.21, 21794.02, 25077.56, 23655.14, 0.000, 0.000, 0.000, 19:14:43.377, 1560010483377
108, 22759.19, 26603.56, 34156.35, 34432.73, 26373.20, 21791.74, 25065.71, 23648.61, 0.006, 0.062, -1.032, 19:14:43.378, 1560010483378
109, 22761.81, 26608.57, 34156.21, 34424.93, 26346.13, 21786.89, 25062.23, 23651.68, 0.000, 0.000, 0.000, 19:14:43.378, 1560010483378
110, 22763.82, 26612.19, 34158.11, 34437.04, 26411.24, 21792.66, 25082.30, 23659.05, 0.000, 0.000, 0.000, 19:14:43.378, 1560010483378
111, 22770.15, 26619.88, 34169.45, 34448.57, 26412.27, 21810.96, 25086.64, 23661.73, 0.000, 0.000, 0.000, 19:14:43.378, 1560010483378
112, 22765.83, 26617.37, 34168.39, 34441.76, 26400.05, 21801.09, 25072.98, 23653.46, 0.000, 0.000, 0.000, 19:14:43.378, 1560010483378
113, 22763.91, 26612.30, 34159.19, 34432.14, 26384.18, 21787.68, 25058.92, 23638.36, 0.000, 0.000, 0.000, 19:14:43.378, 1560010483378
114, 22751.28, 26602.96, 34145.21, 34427.47, 26372.46, 21773.57, 25061.96, 23631.09, 0.000, 0.000, 0.000, 19:14:43.378, 1560010483378
115, 22746.16, 26604.50, 34147.38, 34422.38, 26378.79, 21785.08, 25070.05, 23643.96, 0.000, 0.000, 0.000, 19:14:43.378, 1560010483378
116, 22751.28, 26609.04, 34154.36, 34418.64, 26381.49, 21787.32, 25059.50, 23644.93, 0.000, 0.000, 0.000, 19:14:43.379, 1560010483379
117, 22756.18, 26620.35, 34154.36, 34425.53, 26385.67, 21786.63, 25073.16, 23654.65, 0.000, 0.000, 0.000, 19:14:43.379, 1560010483379
118, 22759.24, 26621.06, 34159.68, 34433.38, 26390.66, 21794.87, 25093.12, 23653.93, 0.002, 0.062, -1.030, 19:14:43.379, 1560010483379
119, 22755.84, 26605.57, 34166.83, 34428.08, 26390.19, 21790.80, 25080.18, 23649.55, 0.000, 0.000, 0.000, 19:14:43.379, 1560010483379
120, 22753.14, 26597.10, 34157.20, 34423.09, 26385.88, 21788.50, 25065.18, 23636.75, 0.000, 0.000, 0.000, 19:14:43.379, 1560010483379
121, 22746.54, 26593.95, 34146.69, 34408.97, 26381.05, 21776.19, 25049.11, 23626.49, 0.000, 0.000, 0.000, 19:14:43.379, 1560010483379
122, 22753.49, 26605.64, 34152.32, 34425.80, 26386.05, 21782.36, 25059.39, 23638.60, 0.000, 0.000, 0.000, 19:14:43.379, 1560010483379
123, 22760.91, 26608.34, 34159.30, 34430.94, 26392.96, 21789.49, 25074.14, 23649.87, 0.000, 0.000, 0.000, 19:14:43.379, 1560010483379
124, 22762.28, 26604.54, 34160.97, 34414.71, 26368.46, 21783.88, 25078.52, 23650.49, 0.000, 0.000, 0.000, 19:14:43.380, 1560010483380
125, 22744.08, 26589.48, 34141.30, 34420.61, 26342.71, 21777.82, 25062.41, 23637.08, 0.000, 0.000, 0.000, 19:14:43.380, 1560010483380
126, 22750.57, 26593.86, 34150.31, 34430.16, 26416.19, 21793.62, 25063.70, 23641.28, 0.000, 0.000, 0.000, 19:14:43.380, 1560010483380
127, 22763.80, 26600.72, 34168.17, 34438.09, 26408.83, 21796.28, 25071.77, 23653.35, 0.000, 0.000, 0.000, 19:14:43.380, 1560010483380
128, 22763.48, 26603.67, 34163.70, 34433.06, 26398.10, 21784.14, 25080.62, 23653.87, 0.004, 0.068, -1.036, 19:14:43.380, 1560010483380
129, 22761.25, 26603.25, 34157.84, 34417.24, 26393.68, 21786.45, 25079.57, 23655.74, 0.000, 0.000, 0.000, 19:14:43.381, 1560010483381
130, 22746.27, 26601.19, 34146.49, 34408.14, 26380.31, 21775.65, 25061.76, 23638.94, 0.000, 0.000, 0.000, 19:14:43.381, 1560010483381
131, 22737.06, 26599.69, 34151.34, 34425.95, 26382.90, 21788.46, 25056.37, 23631.13, 0.000, 0.000, 0.000, 19:14:43.381, 1560010483381
132, 22742.88, 26598.33, 34150.22, 34407.27, 26384.09, 21778.04, 25068.33, 23640.34, 0.000, 0.000, 0.000, 19:14:43.381, 1560010483381
133, 22753.29, 26603.63, 34150.87, 34424.61, 26388.71, 21784.48, 25068.02, 23647.12, 0.000, 0.000, 0.000, 19:14:43.381, 1560010483381
134, 22741.22, 26592.85, 34141.86, 34415.20, 26373.78, 21773.17, 25049.67, 23633.97, 0.000, 0.000, 0.000, 19:14:43.381, 1560010483381
135, 22735.54, 26583.98, 34134.67, 34405.93, 26369.02, 21773.04, 25026.96, 23624.70, 0.000, 0.000, 0.000, 19:14:43.381, 1560010483381
136, 22740.73, 26589.50, 34137.53, 34407.89, 26374.01, 21772.01, 25027.85, 23626.60, 0.000, 0.000, 0.000, 19:14:43.382, 1560010483382
137, 22734.81, 26587.15, 34135.00, 34399.47, 26364.98, 21763.56, 25054.36, 23634.58, 0.010, 0.060, -1.038, 19:14:43.382, 1560010483382
138, 22736.37, 26584.94, 34130.80, 34406.89, 26360.30, 21762.91, 25057.40, 23637.51, 0.000, 0.000, 0.000, 19:14:43.385, 1560010483385
139, 22736.35, 26582.84, 34138.45, 34417.73, 26357.02, 21768.81, 25069.98, 23650.42, 0.000, 0.000, 0.000, 19:14:43.385, 1560010483385
140, 22733.27, 26575.29, 34145.21, 34396.67, 26341.31, 21760.00, 25066.65, 23636.48, 0.000, 0.000, 0.000, 19:14:43.385, 1560010483385
141, 22728.91, 26574.79, 34131.18, 34391.58, 26395.62, 21754.04, 25055.08, 23628.34, 0.000, 0.000, 0.000, 19:14:43.385, 1560010483385
142, 22729.00, 26575.02, 34128.36, 34391.78, 26375.68, 21751.49, 25055.75, 23625.53, 0.000, 0.000, 0.000, 19:14:43.386, 1560010483386
143, 22725.82, 26571.13, 34125.84, 34382.04, 26359.81, 21746.03, 25036.26, 23614.48, 0.000, 0.000, 0.000, 19:14:43.386, 1560010483386
144, 22726.36, 26579.33, 34124.88, 34383.89, 26361.15, 21750.06, 25025.64, 23616.45, 0.000, 0.000, 0.000, 19:14:43.386, 1560010483386
145, 22726.98, 26570.97, 34128.61, 34378.32, 26359.19, 21740.51, 25021.23, 23616.81, 0.000, 0.000, 0.000, 19:14:43.386, 1560010483386
146, 22726.61, 26565.90, 34130.09, 34388.45, 26364.20, 21757.57, 25073.49, 23633.13, 0.000, 0.000, 0.000, 19:14:43.387, 1560010483387
147, 22726.11, 26571.28, 34131.54, 34390.75, 26373.16, 21752.18, 25068.13, 23635.76, 0.010, 0.060, -1.032, 19:14:43.387, 1560010483387
148, 22715.96, 26561.90, 34117.88, 34376.20, 26359.08, 21730.99, 25050.45, 23622.69, 0.000, 0.000, 0.000, 19:14:43.387, 1560010483387
149, 22716.81, 26565.70, 34124.36, 34373.16, 26359.01, 21750.48, 25056.26, 23630.60, 0.000, 0.000, 0.000, 19:14:43.388, 1560010483388
150, 22717.55, 26561.98, 34126.96, 34405.43, 26360.17, 21764.52, 25053.89, 23632.12, 0.000, 0.000, 0.000, 19:14:43.388, 1560010483388
151, 22726.13, 26565.16, 34126.82, 34394.02, 26361.02, 21756.65, 25054.61, 23631.40, 0.000, 0.000, 0.000, 19:14:43.388, 1560010483388
152, 22726.52, 26572.07, 34127.29, 34394.77, 26364.53, 21752.56, 25053.13, 23627.89, 0.000, 0.000, 0.000, 19:14:43.388, 1560010483388
153, 22722.31, 26571.62, 34128.34, 34396.43, 26363.12, 21753.37, 25054.14, 23629.44, 0.000, 0.000, 0.000, 19:14:43.388, 1560010483388
154, 22715.76, 26559.88, 34127.40, 34391.09, 26354.61, 21746.55, 25047.34, 23624.12, 0.000, 0.000, 0.000, 19:14:43.388, 1560010483388
155, 22716.81, 26555.91, 34129.19, 34394.64, 26362.00, 21750.24, 25046.04, 23630.22, 0.000, 0.000, 0.000, 19:14:43.388, 1560010483388
156, 22713.78, 26555.79, 34114.37, 34388.96, 26357.42, 21755.53, 25048.28, 23625.88, 0.000, 0.000, 0.000, 19:14:43.389, 1560010483389
157, 22722.20, 26569.21, 34135.94, 34409.26, 26364.57, 21762.46, 25051.54, 23634.51, 0.010, 0.060, -1.036, 19:14:43.389, 1560010483389
158, 22711.18, 26565.58, 34121.28, 34401.25, 26316.90, 21751.87, 25047.19, 23630.17, 0.000, 0.000, 0.000, 19:14:43.389, 1560010483389
159, 22710.58, 26569.05, 34124.59, 34383.15, 26363.77, 21747.55, 25052.21, 23631.00, 0.000, 0.000, 0.000, 19:14:43.389, 1560010483389
160, 22708.37, 26562.63, 34122.95, 34378.12, 26366.29, 21741.25, 25042.40, 23630.46, 0.000, 0.000, 0.000, 19:14:43.389, 1560010483389
161, 22706.64, 26544.51, 34114.77, 34369.29, 26355.77, 21741.05, 25023.36, 23607.89, 0.000, 0.000, 0.000, 19:14:43.389, 1560010483389
162, 22714.69, 26543.28, 34111.78, 34365.85, 26351.21, 21737.32, 25028.83, 23604.51, 0.000, 0.000, 0.000, 19:14:43.389, 1560010483389
163, 22701.86, 26545.67, 34120.12, 34369.79, 26356.28, 21735.97, 25032.70, 23603.55, 0.000, 0.000, 0.000, 19:14:43.389, 1560010483389
164, 22692.14, 26548.93, 34124.63, 34384.00, 26354.56, 21742.17, 25031.00, 23606.39, 0.000, 0.000, 0.000, 19:14:43.389, 1560010483389
165, 22693.03, 26549.83, 34121.39, 34378.32, 26352.71, 21741.05, 25026.98, 23611.40, 0.000, 0.000, 0.000, 19:14:43.389, 1560010483389
166, 22701.30, 26551.66, 34118.55, 34373.52, 26349.15, 21732.53, 25018.46, 23605.25, 0.000, 0.000, 0.000, 19:14:43.389, 1560010483389
167, 22713.30, 26555.23, 34125.26, 34386.88, 26352.91, 21733.70, 25037.51, 23614.26, 0.008, 0.056, -1.028, 19:14:43.390, 1560010483390
168, 22724.48, 26572.24, 34137.06, 34389.52, 26359.57, 21735.91, 25037.42, 23616.76, 0.000, 0.000, 0.000, 19:14:43.390, 1560010483390
169, 22704.54, 26567.93, 34129.84, 34381.43, 26349.98, 21739.48, 25052.53, 23626.75, 0.000, 0.000, 0.000, 19:14:43.390, 1560010483390
170, 22670.12, 26538.45, 34116.20, 34384.04, 26350.16, 21752.58, 25054.88, 23633.50, 0.000, 0.000, 0.000, 19:14:43.390, 1560010483390
171, 22665.85, 26537.78, 34101.03, 34378.12, 26339.43, 21741.63, 25040.26, 23623.89, 0.000, 0.000, 0.000, 19:14:43.390, 1560010483390
172, 22680.52, 26546.92, 34110.46, 34372.13, 26348.19, 21733.00, 25031.65, 23621.30, 0.000, 0.000, 0.000, 19:14:43.391, 1560010483391
173, 22675.08, 26532.62, 34102.75, 34375.91, 26350.09, 21740.96, 25038.07, 23621.28, 0.000, 0.000, 0.000, 19:14:43.392, 1560010483392
174, 22670.57, 26526.42, 34109.25, 34366.70, 26344.95, 21739.08, 25037.22, 23620.07, 0.000, 0.000, 0.000, 19:14:43.392, 1560010483392
175, 22666.50, 26526.96, 34106.21, 34361.63, 26341.51, 21725.04, 25034.47, 23617.14, 0.000, 0.000, 0.000, 19:14:43.392, 1560010483392
176, 22662.01, 26522.94, 34098.68, 34358.72, 26316.38, 21723.08, 25022.84, 23611.33, 0.000, 0.000, 0.000, 19:14:43.392, 1560010483392
177, 22676.71, 26533.24, 34105.27, 34373.43, 26307.09, 21733.92, 25025.66, 23611.18, 0.004, 0.052, -1.024, 19:14:43.392, 1560010483392
178, 22686.39, 26547.05, 34116.63, 34380.74, 26371.04, 21739.89, 25034.02, 23618.89, 0.000, 0.000, 0.000, 19:14:43.392, 1560010483392
179, 22685.66, 26546.52, 34121.86, 34377.14, 26362.29, 21737.52, 25044.44, 23633.91, 0.000, 0.000, 0.000, 19:14:43.393, 1560010483393
180, 22676.80, 26535.97, 34112.40, 34363.82, 26341.84, 21726.50, 25031.63, 23614.68, 0.000, 0.000, 0.000, 19:14:43.393, 1560010483393
181, 22672.96, 26532.06, 34105.45, 34357.18, 26338.40, 21718.65, 25015.69, 23603.33, 0.000, 0.000, 0.000, 19:14:43.393, 1560010483393
182, 22671.60, 26533.33, 34103.82, 34363.19, 26347.65, 21706.14, 25022.20, 23609.77, 0.000, 0.000, 0.000, 19:14:43.393, 1560010483393
183, 22679.22, 26534.76, 34111.93, 34371.80, 26347.68, 21722.77, 25033.64, 23612.70, 0.000, 0.000, 0.000, 19:14:43.393, 1560010483393
184, 22677.10, 26535.86, 34108.31, 34369.85, 26341.71, 21739.37, 25033.97, 23615.00, 0.000, 0.000, 0.000, 19:14:43.393, 1560010483393
185, 22676.31, 26537.80, 34113.88, 34367.13, 26353.69, 21740.07, 25043.18, 23627.20, 0.000, 0.000, 0.000, 19:14:43.394, 1560010483394
186, 22673.92, 26529.02, 34105.05, 34358.32, 26345.40, 21724.60, 25032.01, 23622.64, 0.000, 0.000, 0.000, 19:14:43.394, 1560010483394
187, 22675.35, 26527.96, 34105.88, 34362.07, 26341.35, 21718.09, 25034.09, 23620.61, 0.008, 0.058, -1.028, 19:14:43.394, 1560010483394
188, 22680.76, 26536.08, 34111.20, 34366.23, 26349.46, 21723.91, 25045.60, 23618.73, 0.000, 0.000, 0.000, 19:14:43.394, 1560010483394
189, 22668.47, 26527.47, 34103.04, 34349.63, 26343.09, 21722.38, 25026.11, 23610.97, 0.000, 0.000, 0.000, 19:14:43.394, 1560010483394
190, 22666.26, 26528.37, 34102.82, 34361.18, 26338.38, 21716.69, 25021.14, 23607.44, 0.000, 0.000, 0.000, 19:14:43.394, 1560010483394
191, 22662.05, 26527.47, 34094.75, 34362.68, 26336.52, 21722.16, 25030.78, 23605.01, 0.000, 0.000, 0.000, 19:14:43.394, 1560010483394
192, 22675.64, 26539.25, 34111.69, 34365.49, 26350.78, 21722.86, 25029.24, 23605.47, 0.000, 0.000, 0.000, 19:14:43.394, 1560010483394
193, 22683.44, 26545.40, 34120.85, 34374.48, 26350.67, 21728.91, 25022.29, 23605.30, 0.000, 0.000, 0.000, 19:14:43.395, 1560010483395
194, 22676.69, 26539.43, 34116.38, 34374.95, 26323.45, 21728.22, 25022.40, 23606.48, 0.000, 0.000, 0.000, 19:14:43.395, 1560010483395
195, 22665.99, 26533.49, 34107.96, 34364.75, 26311.45, 21718.63, 25015.56, 23605.07, 0.000, 0.000, 0.000, 19:14:43.395, 1560010483395
196, 22665.67, 26542.85, 34101.50, 34355.34, 26362.34, 21719.39, 25008.32, 23603.98, 0.000, 0.000, 0.000, 19:14:43.395, 1560010483395
197, 22680.56, 26548.73, 34101.41, 34367.46, 26344.97, 21728.31, 25024.19, 23606.71, 0.006, 0.062, -1.036, 19:14:43.395, 1560010483395
198, 22682.91, 26536.79, 34113.37, 34376.38, 26355.39, 21739.71, 25029.62, 23615.33, 0.000, 0.000, 0.000, 19:14:43.395, 1560010483395
199, 22666.10, 26524.37, 34107.11, 34372.67, 26343.07, 21731.17, 25020.99, 23617.70, 0.000, 0.000, 0.000, 19:14:43.395, 1560010483395
200, 22650.36, 26525.04, 34101.90, 34369.29, 26331.79, 21726.70, 25013.66, 23599.73, 0.000, 0.000, 0.000, 19:14:43.396, 1560010483396
201, 22659.28, 26529.91, 34115.87, 34370.39, 26343.61, 21727.97, 25019.07, 23601.56, 0.000, 0.000, 0.000, 19:14:43.396, 1560010483396
202, 22668.33, 26530.47, 34118.66, 34381.81, 26349.31, 21730.21, 25018.44, 23604.76, 0.000, 0.000, 0.000, 19:14:43.396, 1560010483396
203, 22670.61, 26529.78, 34115.89, 34372.00, 26345.08, 21724.46, 25022.40, 23599.11, 0.000, 0.000, 0.000, 19:14:43.396, 1560010483396
204, 22662.77, 26523.65, 34107.78, 34367.84, 26342.69, 21723.35, 25020.52, 23602.30, 0.000, 0.000, 0.000, 19:14:43.396, 1560010483396
205, 22657.89, 26519.25, 34097.70, 34353.11, 26337.04, 21715.41, 25012.81, 23598.84, 0.000, 0.000, 0.000, 19:14:43.396, 1560010483396
206, 22660.13, 26522.20, 34094.99, 34350.96, 26330.26, 21710.16, 25017.57, 23599.11, 0.000, 0.000, 0.000, 19:14:43.396, 1560010483396
207, 22657.87, 26518.24, 34096.27, 34357.56, 26328.48, 21712.55, 25013.95, 23596.54, 0.008, 0.064, -1.032, 19:14:43.396, 1560010483396
208, 22671.66, 26527.14, 34103.98, 34366.72, 26337.91, 21718.14, 25020.86, 23600.24, 0.000, 0.000, 0.000, 19:14:43.396, 1560010483396
209, 22668.76, 26530.42, 34103.64, 34368.29, 26332.46, 21723.08, 25017.75, 23602.73, 0.000, 0.000, 0.000, 19:14:43.396, 1560010483396
210, 22655.12, 26530.45, 34103.26, 34364.84, 26340.88, 21720.04, 25020.86, 23604.31, 0.000, 0.000, 0.000, 19:14:43.397, 1560010483397
211, 22652.87, 26525.28, 34096.56, 34353.07, 26320.21, 21699.03, 25013.50, 23597.47, 0.000, 0.000, 0.000, 19:14:43.397, 1560010483397
212, 22659.57, 26525.19, 34104.52, 34358.47, 26288.51, 21706.20, 25012.70, 23595.46, 0.000, 0.000, 0.000, 19:14:43.398, 1560010483398
213, 22668.56, 26531.36, 34104.22, 34365.87, 26349.82, 21718.90, 25022.60, 23599.62, 0.000, 0.000, 0.000, 19:14:43.398, 1560010483398
214, 22667.93, 26533.93, 34099.80, 34359.50, 26345.13, 21710.67, 25013.28, 23598.99, 0.000, 0.000, 0.000, 19:14:43.398, 1560010483398
215, 22665.18, 26533.38, 34093.70, 34350.63, 26323.04, 21710.94, 25003.76, 23593.45, 0.000, 0.000, 0.000, 19:14:43.398, 1560010483398
216, 22669.16, 26533.17, 34102.99, 34375.86, 26335.67, 21719.77, 25009.66, 23599.78, 0.000, 0.000, 0.000, 19:14:43.398, 1560010483398
217, 22663.95, 26533.38, 34094.37, 34361.02, 26323.78, 21711.10, 25008.90, 23599.17, 0.010, 0.062, -1.028, 19:14:43.398, 1560010483398
218, 22668.74, 26529.55, 34108.94, 34365.76, 26341.71, 21723.84, 25029.66, 23613.01, 0.000, 0.000, 0.000, 19:14:43.398, 1560010483398
219, 22662.79, 26525.06, 34108.56, 34364.87, 26341.69, 21722.97, 25027.67, 23610.59, 0.000, 0.000, 0.000, 19:14:43.398, 1560010483398
220, 22652.89, 26515.45, 34101.25, 34370.52, 26330.06, 21716.13, 25017.17, 23604.31, 0.000, 0.000, 0.000, 19:14:43.398, 1560010483398
221, 22658.74, 26520.19, 34104.04, 34373.90, 26334.62, 21719.03, 25018.89, 23604.16, 0.000, 0.000, 0.000, 19:14:43.398, 1560010483398
222, 22662.95, 26521.71, 34103.55, 34357.63, 26338.58, 21716.22, 25017.88, 23608.11, 0.000, 0.000, 0.000, 19:14:43.399, 1560010483399
223, 22669.50, 26524.28, 34098.97, 34359.75, 26334.45, 21711.66, 25010.21, 23596.36, 0.000, 0.000, 0.000, 19:14:43.399, 1560010483399
224, 22656.91, 26527.36, 34088.15, 34352.82, 26325.32, 21705.91, 25017.44, 23595.08, 0.000, 0.000, 0.000, 19:14:43.857, 1560010483857
225, 22649.40, 26522.85, 34095.71, 34356.66, 26332.23, 21710.56, 25027.72, 23602.05, 0.000, 0.000, 0.000, 19:14:43.857, 1560010483857
226, 22644.37, 26515.20, 34094.81, 34358.99, 26331.83, 21704.57, 25020.21, 23598.23, 0.000, 0.000, 0.000, 19:14:43.857, 1560010483857
227, 22645.69, 26515.40, 34090.12, 34361.05, 26332.90, 21704.53, 25024.34, 23601.01, 0.012, 0.060, -1.030, 19:14:43.858, 1560010483858
228, 22653.43, 26517.97, 34086.07, 34359.30, 26325.86, 21705.00, 25016.99, 23594.08, 0.000, 0.000, 0.000, 19:14:43.859, 1560010483859
229, 22651.12, 26528.14, 34096.49, 34357.49, 26325.28, 21703.37, 25009.61, 23591.95, 0.000, 0.000, 0.000, 19:14:43.859, 1560010483859
230, 22628.12, 26517.64, 34080.96, 34336.17, 26309.25, 21693.66, 24996.29, 23585.54, 0.000, 0.000, 0.000, 19:14:43.859, 1560010483859
231, 22642.83, 26524.57, 34089.07, 34347.21, 26324.97, 21704.93, 25009.39, 23595.24, 0.000, 0.000, 0.000, 19:14:43.859, 1560010483859
232, 22654.86, 26517.59, 34092.24, 34357.71, 26330.26, 21707.88, 25010.24, 23596.40, 0.000, 0.000, 0.000, 19:14:43.859, 1560010483859
233, 22651.73, 26505.61, 34089.40, 34351.97, 26304.74, 21697.87, 25007.58, 23595.95, 0.000, 0.000, 0.000, 19:14:43.859, 1560010483859
234, 22651.70, 26506.42, 34093.76, 34349.73, 26287.75, 21694.83, 25004.47, 23594.68, 0.000, 0.000, 0.000, 19:14:43.859, 1560010483859
235, 22646.85, 26507.42, 34084.80, 34342.36, 26335.90, 21682.40, 25007.89, 23587.59, 0.000, 0.000, 0.000, 19:14:43.859, 1560010483859
236, 22649.11, 26511.29, 34086.77, 34333.60, 26320.27, 21700.62, 25004.52, 23588.76, 0.000, 0.000, 0.000, 19:14:43.860, 1560010483860
237, 22654.61, 26516.41, 34091.44, 34357.29, 26335.45, 21712.24, 25006.08, 23592.31, 0.014, 0.060, -1.034, 19:14:43.860, 1560010483860
238, 22654.99, 26523.47, 34092.18, 34375.37, 26329.64, 21710.05, 25010.33, 23593.67, 0.000, 0.000, 0.000, 19:14:43.860, 1560010483860
239, 22650.34, 26515.20, 34096.51, 34348.84, 26330.53, 21704.95, 25017.66, 23605.41, 0.000, 0.000, 0.000, 19:14:43.860, 1560010483860
240, 22644.60, 26505.61, 34083.70, 34347.07, 26319.42, 21702.04, 24997.16, 23594.99, 0.000, 0.000, 0.000, 19:14:43.860, 1560010483860
241, 22634.58, 26496.63, 34075.95, 34338.49, 26311.13, 21694.07, 24994.30, 23579.55, 0.000, 0.000, 0.000, 19:14:43.861, 1560010483861
242, 22640.04, 26501.21, 34081.36, 34341.91, 26315.85, 21695.00, 25004.65, 23583.55, 0.000, 0.000, 0.000, 19:14:43.861, 1560010483861
243, 22646.63, 26502.26, 34083.44, 34346.45, 26320.86, 21697.15, 25000.38, 23585.16, 0.000, 0.000, 0.000, 19:14:43.861, 1560010483861
244, 22637.64, 26495.73, 34077.00, 34338.47, 26307.11, 21687.07, 24988.56, 23578.61, 0.000, 0.000, 0.000, 19:14:43.861, 1560010483861
245, 22630.89, 26493.99, 34063.70, 34329.06, 26290.88, 21677.84, 24988.33, 23573.58, 0.000, 0.000, 0.000, 19:14:43.861, 1560010483861
246, 22636.37, 26498.57, 34063.81, 34327.32, 26310.04, 21683.43, 24998.26, 23579.88, 0.000, 0.000, 0.000, 19:14:43.862, 1560010483862
247, 22638.83, 26505.46, 34081.56, 34326.85, 26323.09, 21682.04, 25006.53, 23585.29, 0.010, 0.056, -1.026, 19:14:43.862, 1560010483862
248, 22645.13, 26515.29, 34086.81, 34334.74, 26326.11, 21688.05, 25008.90, 23594.03, 0.000, 0.000, 0.000, 19:14:43.862, 1560010483862
249, 22644.06, 26511.36, 34085.58, 34349.31, 26322.17, 21705.62, 25013.88, 23602.28, 0.000, 0.000, 0.000, 19:14:43.862, 1560010483862
250, 22632.46, 26494.42, 34074.85, 34347.25, 26284.67, 21700.93, 25006.97, 23603.08, 0.000, 0.000, 0.000, 19:14:43.862, 1560010483862
251, 22624.19, 26483.08, 34057.48, 34338.27, 26277.43, 21684.86, 24991.71, 23590.46, 0.000, 0.000, 0.000, 19:14:43.863, 1560010483863
252, 22625.08, 26485.97, 34058.67, 34338.00, 26323.78, 21686.98, 25002.84, 23593.25, 0.000, 0.000, 0.000, 19:14:43.863, 1560010483863
253, 22636.10, 26498.28, 34073.87, 34335.77, 26315.89, 21687.63, 25015.11, 23596.42, 0.000, 0.000, 0.000, 19:14:43.863, 1560010483863
254, 22630.09, 26498.91, 34070.59, 34339.39, 26311.87, 21692.28, 25012.56, 23593.85, 0.000, 0.000, 0.000, 19:14:43.863, 1560010483863
255, 22616.59, 26480.20, 34058.22, 34325.95, 26300.54, 21687.14, 24996.29, 23584.24, 0.000, 0.000, 0.000, 19:14:43.863, 1560010483863
0, 22619.54, 26479.84, 34059.34, 34327.54, 26301.92, 21684.90, 25001.83, 23590.79, 0.004, 0.058, -1.030, 19:14:43.865, 1560010483865
1, 22627.61, 26482.19, 34056.97, 34333.75, 26294.44, 21683.72, 25000.47, 23580.78, 0.000, 0.000, 0.000, 19:14:43.865, 1560010483865
2, 22626.96, 26488.04, 34057.06, 34334.18, 26295.31, 21677.17, 24993.47, 23572.06, 0.000, 0.000, 0.000, 19:14:43.865, 1560010483865
3, 22631.52, 26503.31, 34066.54, 34327.76, 26305.63, 21681.71, 25002.64, 23589.20, 0.000, 0.000, 0.000, 19:14:43.865, 1560010483865
4, 22629.49, 26511.52, 34067.77, 34324.84, 26296.47, 21688.63, 25003.71, 23603.08, 0.000, 0.000, 0.000, 19:14:43.865, 1560010483865
5, 22625.62, 26496.85, 34062.29, 34339.68, 26294.17, 21684.23, 24986.86, 23584.51, 0.000, 0.000, 0.000, 19:14:43.865, 1560010483865
6, 22634.34, 26487.13, 34059.95, 34332.23, 26289.21, 21673.23, 24991.69, 23575.52, 0.000, 0.000, 0.000, 19:14:43.865, 1560010483865
7, 22635.43, 26490.41, 34051.63, 34320.99, 26297.86, 21668.74, 25000.18, 23581.54, 0.000, 0.000, 0.000, 19:14:43.865, 1560010483865
8, 22629.67, 26492.47, 34063.41, 34332.26, 26302.32, 21688.81, 24996.65, 23583.57, 0.000, 0.000, 0.000, 19:14:43.865, 1560010483865
9, 22619.76, 26487.69, 34062.00, 34337.89, 26291.19, 21686.69, 24993.79, 23587.28, 0.000, 0.000, 0.000, 19:14:43.865, 1560010483865
10, 22621.24, 26487.24, 34067.03, 34332.57, 26295.78, 21684.72, 24995.64, 23587.33, 0.000, 0.060, -1.032, 19:14:43.866, 1560010483866
11, 22633.46, 26494.39, 34071.16, 34326.04, 26299.53, 21677.17, 25001.43, 23589.16, 0.000, 0.000, 0.000, 19:14:43.866, 1560010483866
12, 22631.16, 26497.86, 34070.41, 34339.18, 26282.21, 21683.49, 24982.97, 23583.23, 0.000, 0.000, 0.000, 19:14:43.866, 1560010483866
13, 22625.20, 26499.80, 34066.89, 34336.77, 26257.96, 21687.09, 25000.00, 23585.92, 0.000, 0.000, 0.000, 19:14:43.866, 1560010483866
14, 22616.57, 26489.32, 34051.85, 34329.33, 26302.79, 21678.60, 24992.45, 23576.91, 0.000, 0.000, 0.000, 19:14:43.866, 1560010483866
15, 22621.71, 26485.95, 34056.59, 34332.57, 26294.77, 21678.26, 24993.45, 23579.70, 0.000, 0.000, 0.000, 19:14:43.867, 1560010483867
16, 22626.76, 26483.73, 34058.31, 34322.73, 26283.84, 21666.30, 24987.15, 23569.38, 0.000, 0.000, 0.000, 19:14:43.868, 1560010483868
17, 22623.27, 26482.12, 34055.07, 34322.24, 26285.74, 21664.58, 24984.80, 23562.65, 0.000, 0.000, 0.000, 19:14:43.868, 1560010483868
18, 22619.36, 26483.71, 34054.25, 34322.02, 26284.87, 21667.65, 24988.24, 23575.90, 0.000, 0.000, 0.000, 19:14:43.868, 1560010483868
19, 22615.58, 26480.40, 34050.31, 34320.34, 26283.88, 21668.03, 24986.66, 23580.26, 0.000, 0.000, 0.000, 19:14:43.868, 1560010483868
20, 22612.16, 26477.50, 34047.18, 34314.84, 26284.13, 21663.13, 24991.62, 23577.38, 0.002, 0.064, -1.036, 19:14:43.868, 1560010483868
21, 22610.55, 26479.62, 34048.01, 34295.64, 26281.09, 21649.92, 24981.45, 23562.85, 0.000, 0.000, 0.000, 19:14:43.868, 1560010483868
22, 22618.45, 26484.71, 34056.01, 34312.70, 26288.62, 21653.95, 24984.38, 23565.24, 0.000, 0.000, 0.000, 19:14:43.868, 1560010483868
23, 22612.99, 26484.71, 34056.03, 34327.18, 26291.10, 21663.00, 24982.95, 23573.33, 0.000, 0.000, 0.000, 19:14:43.868, 1560010483868
24, 22614.80, 26482.81, 34055.54, 34324.63, 26288.42, 21678.53, 24986.03, 23573.49, 0.000, 0.000, 0.000, 19:14:43.868, 1560010483868
25, 22620.93, 26485.90, 34050.07, 34314.04, 26285.09, 21668.29, 24979.26, 23568.55, 0.000, 0.000, 0.000, 19:14:43.869, 1560010483869
26, 22622.09, 26492.70, 34044.86, 34326.91, 26279.08, 21666.53, 24974.70, 23570.23, 0.000, 0.000, 0.000, 19:14:43.870, 1560010483870
27, 22630.98, 26493.61, 34065.98, 34339.32, 26294.19, 21672.00, 24986.08, 23568.71, 0.000, 0.000, 0.000, 19:14:43.870, 1560010483870
28, 22626.20, 26484.56, 34067.70, 34332.46, 26292.45, 21669.41, 24987.86, 23563.83, 0.000, 0.000, 0.000, 19:14:43.871, 1560010483871
29, 22612.90, 26477.96, 34057.38, 34317.37, 26282.16, 21661.25, 24976.98, 23559.70, 0.000, 0.000, 0.000, 19:14:43.876, 1560010483876
30, 22606.80, 26475.44, 34054.69, 34312.07, 26253.33, 21658.17, 24979.37, 23562.61, 0.004, 0.062, -1.036, 19:14:43.876, 1560010483876
31, 22611.52, 26485.56, 34054.65, 34313.35, 26251.03, 21647.33, 24983.01, 23564.42, 0.000, 0.000, 0.000, 19:14:43.877, 1560010483877
32, 22614.44, 26485.86, 34043.58, 34323.18, 26298.17, 21655.17, 24981.43, 23564.13, 0.000, 0.000, 0.000, 19:14:43.877, 1560010483877
33, 22619.88, 26484.89, 34055.95, 34317.04, 26279.64, 21660.85, 24980.71, 23565.76, 0.000, 0.000, 0.000, 19:14:43.877, 1560010483877
34, 22608.86, 26478.12, 34058.78, 34307.60, 26284.89, 21658.01, 24981.40, 23569.33, 0.000, 0.000, 0.000, 19:14:43.877, 1560010483877
35, 22601.41, 26467.95, 34055.65, 34304.36, 26283.75, 21657.37, 24974.47, 23566.87, 0.000, 0.000, 0.000, 19:14:43.878, 1560010483878
36, 22608.14, 26472.47, 34052.95, 34310.89, 26270.07, 21654.48, 24965.71, 23555.25, 0.000, 0.000, 0.000, 19:14:43.878, 1560010483878
37, 22622.98, 26479.62, 34059.50, 34319.14, 26284.35, 21656.40, 24985.32, 23562.92, 0.000, 0.000, 0.000, 19:14:43.878, 1560010483878
38, 22608.88, 26474.70, 34062.07, 34320.34, 26293.32, 21662.28, 24993.14, 23571.75, 0.000, 0.000, 0.000, 19:14:43.878, 1560010483878
39, 22594.51, 26479.60, 34060.17, 34323.96, 26281.27, 21661.30, 24981.22, 23568.42, 0.000, 0.000, 0.000, 19:14:43.879, 1560010483879
40, 22583.73, 26478.63, 34058.60, 34311.58, 26283.13, 21658.15, 24982.57, 23565.38, 0.010, 0.064, -1.040, 19:14:43.879, 1560010483879
41, 22585.88, 26470.70, 34057.06, 34296.40, 26288.51, 21650.03, 24983.84, 23563.05, 0.000, 0.000, 0.000, 19:14:43.880, 1560010483880
42, 22588.49, 26469.63, 34050.69, 34305.59, 26279.28, 21648.47, 24979.21, 23564.24, 0.000, 0.000, 0.000, 19:14:43.880, 1560010483880
43, 22588.07, 26473.94, 34050.02, 34309.01, 26273.16, 21644.54, 24973.76, 23565.29, 0.000, 0.000, 0.000, 19:14:43.888, 1560010483888
44, 22584.85, 26465.45, 34049.60, 34296.38, 26265.51, 21635.64, 24974.45, 23556.53, 0.000, 0.000, 0.000, 19:14:43.888, 1560010483888
45, 22581.12, 26461.98, 34042.67, 34293.30, 26224.32, 21633.98, 24968.37, 23551.90, 0.000, 0.000, 0.000, 19:14:43.888, 1560010483888
46, 22581.70, 26461.96, 34038.64, 34294.66, 26278.45, 21644.67, 24966.76, 23555.85, 0.000, 0.000, 0.000, 19:14:43.888, 1560010483888
47, 22583.55, 26463.15, 34041.64, 34296.65, 26286.57, 21639.86, 24973.58, 23553.62, 0.000, 0.000, 0.000, 19:14:43.889, 1560010483889
48, 22576.78, 26467.01, 34052.19, 34304.27, 26278.28, 21643.93, 24974.07, 23562.65, 0.000, 0.000, 0.000, 19:14:43.889, 1560010483889
49, 22574.14, 26474.17, 34058.71, 34310.84, 26281.85, 21649.25, 24975.55, 23563.43, 0.000, 0.000, 0.000, 19:14:43.889, 1560010483889
50, 22574.63, 26467.66, 34051.92, 34311.25, 26274.21, 21649.25, 24968.19, 23549.24, 0.008, 0.060, -1.042, 19:14:43.889, 1560010483889
51, 22575.64, 26471.86, 34052.10, 34305.64, 26277.34, 21647.96, 24972.02, 23555.88, 0.000, 0.000, 0.000, 19:14:43.890, 1560010483890
52, 22580.87, 26469.18, 34057.48, 34309.48, 26276.53, 21640.36, 24964.24, 23554.24, 0.000, 0.000, 0.000, 19:14:43.890, 1560010483890
53, 22568.80, 26457.63, 34044.14, 34307.31, 26259.86, 21638.12, 24974.86, 23557.29, 0.000, 0.000, 0.000, 19:14:43.890, 1560010483890
54, 22563.62, 26454.65, 34046.51, 34308.94, 26268.30, 21654.75, 24980.02, 23564.17, 0.000, 0.000, 0.000, 19:14:43.890, 1560010483890
55, 22561.72, 26456.64, 34046.49, 34312.47, 26276.24, 21647.35, 24978.83, 23561.93, 0.000, 0.000, 0.000, 19:14:43.891, 1560010483891
56, 22570.28, 26459.84, 34038.09, 34304.25, 26276.22, 21643.46, 24983.17, 23556.77, 0.000, 0.000, 0.000, 19:14:43.891, 1560010483891
57, 22569.76, 26457.83, 34035.31, 34290.91, 26269.65, 21640.04, 24976.69, 23556.41, 0.000, 0.000, 0.000, 19:14:43.891, 1560010483891
58, 22573.14, 26468.22, 34054.80, 34305.46, 26278.68, 21651.64, 24982.88, 23568.93, 0.000, 0.000, 0.000, 19:14:43.891, 1560010483891
59, 22567.37, 26472.24, 34050.40, 34307.73, 26279.26, 21651.38, 24985.94, 23572.51, 0.000, 0.000, 0.000, 19:14:43.891, 1560010483891
60, 22558.36, 26463.21, 34040.21, 34303.69, 26265.76, 21643.42, 24986.39, 23574.07, 0.008, 0.064, -1.040, 19:14:43.892, 1560010483892
61, 22566.83, 26466.57, 34049.37, 34308.34, 26275.77, 21649.74, 24986.75, 23574.05, 0.000, 0.000, 0.000, 19:14:43.892, 1560010483892
62, 22567.53, 26458.16, 34046.64, 34303.89, 26286.34, 21647.82, 24983.42, 23565.91, 0.000, 0.000, 0.000, 19:14:43.892, 1560010483892
63, 22559.28, 26456.39, 34039.31, 34299.24, 26271.72, 21642.28, 24981.34, 23559.12, 0.000, 0.000, 0.000, 19:14:43.892, 1560010483892
64, 22552.42, 26456.28, 34040.39, 34296.56, 26264.64, 21638.70, 24971.57, 23554.74, 0.000, 0.000, 0.000, 19:14:43.892, 1560010483892
65, 22553.45, 26450.74, 34036.14, 34287.02, 26231.00, 21623.81, 24967.70, 23549.44, 0.000, 0.000, 0.000, 19:14:43.893, 1560010483893
66, 22548.17, 26443.52, 34023.73, 34265.96, 26240.25, 21615.63, 24969.31, 23546.76, 0.000, 0.000, 0.000, 19:14:43.893, 1560010483893
67, 22559.68, 26454.79, 34040.66, 34302.89, 26289.09, 21641.67, 24975.55, 23558.16, 0.000, 0.000, 0.000, 19:14:43.893, 1560010483893
68, 22557.54, 26449.33, 34039.96, 34312.92, 26272.60, 21644.78, 24964.60, 23558.87, 0.000, 0.000, 0.000, 19:14:43.893, 1560010483893
69, 22562.48, 26459.95, 34030.95, 34295.80, 26256.39, 21632.78, 24957.31, 23546.85, 0.000, 0.000, 0.000, 19:14:43.893, 1560010483893
70, 22578.21, 26481.21, 34037.73, 34292.87, 26258.07, 21631.57, 24956.01, 23543.00, 0.004, 0.068, -1.036, 19:14:43.894, 1560010483894
71, 22574.66, 26470.19, 34052.14, 34296.70, 26273.71, 21634.32, 24971.32, 23562.96, 0.000, 0.000, 0.000, 19:14:43.894, 1560010483894
72, 22565.78, 26451.54, 34050.78, 34297.50, 26281.94, 21641.38, 24987.89, 23567.84, 0.000, 0.000, 0.000, 19:14:43.894, 1560010483894
73, 22570.41, 26461.45, 34056.55, 34311.71, 26284.44, 21654.21, 25001.68, 23582.45, 0.000, 0.000, 0.000, 19:14:43.894, 1560010483894
74, 22562.65, 26458.41, 34047.47, 34304.05, 26271.30, 21645.63, 24981.45, 23566.72, 0.000, 0.000, 0.000, 19:14:43.894, 1560010483894
75, 22548.24, 26437.40, 34032.79, 34283.98, 26258.96, 21628.42, 24964.08, 23545.84, 0.000, 0.000, 0.000, 19:14:43.895, 1560010483895
76, 22552.78, 26439.50, 34029.19, 34283.60, 26255.45, 21624.48, 24967.81, 23549.75, 0.000, 0.000, 0.000, 19:14:43.895, 1560010483895
77, 22562.65, 26450.03, 34040.95, 34302.30, 26269.36, 21640.53, 24983.86, 23562.31, 0.000, 0.000, 0.000, 19:14:43.897, 1560010483897
78, 22557.47, 26452.64, 34028.63, 34293.48, 26261.02, 21632.02, 24970.70, 23554.51, 0.000, 0.000, 0.000, 19:14:43.898, 1560010483898
79, 22552.15, 26450.90, 34021.88, 34276.38, 26254.04, 21628.73, 24964.80, 23549.60, 0.000, 0.000, 0.000, 19:14:43.898, 1560010483898
80, 22559.79, 26453.36, 34038.04, 34287.75, 26265.45, 21630.23, 24965.20, 23553.78, 0.002, 0.064, -1.034, 19:14:43.899, 1560010483899
81, 22567.10, 26451.59, 34042.15, 34289.99, 26268.80, 21629.07, 24971.46, 23557.22, 0.000, 0.000, 0.000, 19:14:43.899, 1560010483899
82, 22562.92, 26445.02, 34033.61, 34269.36, 26260.82, 21619.03, 24968.11, 23553.71, 0.000, 0.000, 0.000, 19:14:43.899, 1560010483899
83, 22555.39, 26445.71, 34026.11, 34268.71, 26249.46, 21614.31, 24961.98, 23548.97, 0.000, 0.000, 0.000, 19:14:43.900, 1560010483900
84, 22549.80, 26444.75, 34028.70, 34263.82, 26212.18, 21601.93, 24957.35, 23541.95, 0.000, 0.000, 0.000, 19:14:43.901, 1560010483901
85, 22552.19, 26442.67, 34025.41, 34269.43, 26232.07, 21608.28, 24954.96, 23537.73, 0.000, 0.000, 0.000, 19:14:43.901, 1560010483901
86, 22558.41, 26452.06, 34028.79, 34291.66, 26279.48, 21635.39, 24957.29, 23542.31, 0.000, 0.000, 0.000, 19:14:43.901, 1560010483901
87, 22567.42, 26458.34, 34036.97, 34293.07, 26267.95, 21633.40, 24961.49, 23548.66, 0.000, 0.000, 0.000, 19:14:43.901, 1560010483901
88, 22560.69, 26449.47, 34032.63, 34274.05, 26260.57, 21621.98, 24960.62, 23549.69, 0.000, 0.000, 0.000, 19:14:43.901, 1560010483901
89, 22549.42, 26439.63, 34028.16, 34285.18, 26250.40, 21622.32, 24952.91, 23549.17, 0.000, 0.000, 0.000, 19:14:44.338, 1560010484338
90, 22551.88, 26439.74, 34031.42, 34281.23, 26255.77, 21617.71, 24950.94, 23537.93, 0.004, 0.060, -1.034, 19:14:44.338, 1560010484338
91, 22554.21, 26439.95, 34031.91, 34279.15, 26254.78, 21615.88, 24956.77, 23538.55, 0.000, 0.000, 0.000, 19:14:44.338, 1560010484338
92, 22561.89, 26446.61, 34030.93, 34280.38, 26261.89, 21615.39, 24967.32, 23547.03, 0.000, 0.000, 0.000, 19:14:44.338, 1560010484338
93, 22552.39, 26444.75, 34024.81, 34266.74, 26254.87, 21605.96, 24962.34, 23542.40, 0.000, 0.000, 0.000, 19:14:44.339, 1560010484339
94, 22535.16, 26436.44, 34026.75, 34270.30, 26257.53, 21616.80, 24962.20, 23548.41, 0.000, 0.000, 0.000, 19:14:44.339, 1560010484339
95, 22533.80, 26428.39, 34027.33, 34271.06, 26259.41, 21616.42, 24961.40, 23544.50, 0.000, 0.000, 0.000, 19:14:44.339, 1560010484339
96, 22545.09, 26433.93, 34030.11, 34277.25, 26262.74, 21616.66, 24959.03, 23539.87, 0.000, 0.000, 0.000, 19:14:44.340, 1560010484340
97, 22548.84, 26440.57, 34026.62, 34276.93, 26258.20, 21613.67, 24958.18, 23543.47, 0.000, 0.000, 0.000, 19:14:44.340, 1560010484340
98, 22547.16, 26442.80, 34028.88, 34276.42, 26253.55, 21614.38, 24950.47, 23541.01, 0.000, 0.000, 0.000, 19:14:44.340, 1560010484340
99, 22539.45, 26435.61, 34027.16, 34275.08, 26260.30, 21616.28, 24941.95, 23539.81, 0.000, 0.000, 0.000, 19:14:44.340, 1560010484340
100, 22544.51, 26426.42, 34032.86, 34271.55, 26258.52, 21615.43, 24952.41, 23537.01, 0.006, 0.062, -1.036, 19:14:44.340, 1560010484340
101, 22543.05, 26430.74, 34025.90, 34275.41, 26250.80, 21609.15, 24959.52, 23536.36, 0.000, 0.000, 0.000, 19:14:44.340, 1560010484340
102, 22548.01, 26431.21, 34030.06, 34290.19, 26259.90, 21612.44, 24968.48, 23540.37, 0.000, 0.000, 0.000, 19:14:44.340, 1560010484340
103, 22545.53, 26427.90, 34025.75, 34257.60, 26251.12, 21600.12, 24959.25, 23528.99, 0.000, 0.000, 0.000, 19:14:44.340, 1560010484340
104, 22536.79, 26423.18, 34023.27, 34246.76, 26244.03, 21595.16, 24954.45, 23531.78, 0.000, 0.000, 0.000, 19:14:44.340, 1560010484340
105, 22529.13, 26421.37, 34022.35, 34264.06, 26233.06, 21599.27, 24943.29, 23527.18, 0.000, 0.000, 0.000, 19:14:44.340, 1560010484340
106, 22530.89, 26422.73, 34017.21, 34259.95, 26201.27, 21598.67, 24932.12, 23520.09, 0.000, 0.000, 0.000, 19:14:44.341, 1560010484341
107, 22536.77, 26432.37, 34022.95, 34263.90, 26264.26, 21604.10, 24943.83, 23528.29, 0.000, 0.000, 0.000, 19:14:44.341, 1560010484341
108, 22537.58, 26442.60, 34026.75, 34276.29, 26267.81, 21609.76, 24953.73, 23538.46, 0.000, 0.000, 0.000, 19:14:44.342, 1560010484342
109, 22550.81, 26441.93, 34041.19, 34281.56, 26266.63, 21617.53, 24959.83, 23554.45, 0.000, 0.000, 0.000, 19:14:44.342, 1560010484342
110, 22549.60, 26434.98, 34035.63, 34272.87, 26253.49, 21603.79, 24953.11, 23536.79, 0.008, 0.062, -1.034, 19:14:44.342, 1560010484342
111, 22546.40, 26442.52, 34050.00, 34281.47, 26268.17, 21610.56, 24960.17, 23539.09, 0.000, 0.000, 0.000, 19:14:44.342, 1560010484342
112, 22545.00, 26437.04, 34040.10, 34274.75, 26256.57, 21611.45, 24955.81, 23537.93, 0.000, 0.000, 0.000, 19:14:44.342, 1560010484342
113, 22543.03, 26431.00, 34033.35, 34262.54, 26247.18, 21595.03, 24951.74, 23533.10, 0.000, 0.000, 0.000, 19:14:44.342, 1560010484342
114, 22533.64, 26429.84, 34023.54, 34246.02, 26248.30, 21589.48, 24944.93, 23525.46, 0.000, 0.000, 0.000, 19:14:44.342, 1560010484342
115, 22532.26, 26432.86, 34031.22, 34274.70, 26253.87, 21608.66, 24941.73, 23519.09, 0.000, 0.000, 0.000, 19:14:44.347, 1560010484347
116, 22525.37, 26431.00, 34020.79, 34284.58, 26247.45, 21606.40, 24942.00, 23521.48, 0.000, 0.000, 0.000, 19:14:44.347, 1560010484347
117, 22532.50, 26427.25, 34026.37, 34276.36, 26245.39, 21602.09, 24943.88, 23526.73, 0.000, 0.000, 0.000, 19:14:44.347, 1560010484347
118, 22542.31, 26436.50, 34037.48, 34270.14, 26249.20, 21597.62, 24949.93, 23532.32, 0.000, 0.000, 0.000, 19:14:44.347, 1560010484347
119, 22534.87, 26434.40, 34029.73, 34269.27, 26242.60, 21592.75, 24940.39, 23528.81, 0.010, 0.068, -1.034, 19:14:44.348, 1560010484348
120, 22532.86, 26431.96, 34030.75, 34275.28, 26247.27, 21610.81, 24953.33, 23537.53, 0.000, 0.000, 0.000, 19:14:44.348, 1560010484348
121, 22531.47, 26426.94, 34016.92, 34266.00, 26232.74, 21598.89, 24951.03, 23531.38, 0.000, 0.000, 0.000, 19:14:44.348, 1560010484348
122, 22532.84, 26430.29, 34027.36, 34266.09, 26243.41, 21601.69, 24950.83, 23537.28, 0.000, 0.000, 0.000, 19:14:44.348, 1560010484348
123, 22529.84, 26430.13, 34028.32, 34278.14, 26210.48, 21611.59, 24948.93, 23541.50, 0.000, 0.000, 0.000, 19:14:44.348, 1560010484348
124, 22521.51, 26428.25, 34021.79, 34276.31, 26257.71, 21609.02, 24946.07, 23539.87, 0.000, 0.000, 0.000, 19:14:44.348, 1560010484348
125, 22518.17, 26418.38, 34017.88, 34274.36, 26246.67, 21602.92, 24955.48, 23537.59, 0.000, 0.000, 0.000, 19:14:44.348, 1560010484348
126, 22526.60, 26422.96, 34018.10, 34255.70, 26246.13, 21600.01, 24958.63, 23537.44, 0.000, 0.000, 0.000, 19:14:44.349, 1560010484349
127, 22524.34, 26426.42, 34011.17, 34258.20, 26242.94, 21597.13, 24961.33, 23540.90, 0.000, 0.000, 0.000, 19:14:44.349, 1560010484349
128, 22526.06, 26430.13, 34023.94, 34263.46, 26245.28, 21607.30, 24963.39, 23545.95, 0.000, 0.000, 0.000, 19:14:44.349, 1560010484349
129, 22519.63, 26419.78, 34021.32, 34253.13, 26239.20, 21599.36, 24958.81, 23546.22, 0.008, 0.062, -1.036, 19:14:44.349, 1560010484349
130, 22514.42, 26415.51, 34017.14, 34261.40, 26241.71, 21595.76, 24955.12, 23544.88, 0.000, 0.000, 0.000, 19:14:44.350, 1560010484350
131, 22516.32, 26416.47, 34020.02, 34272.80, 26246.33, 21601.08, 24955.81, 23534.62, 0.000, 0.000, 0.000, 19:14:44.350, 1560010484350
132, 22520.57, 26417.48, 34019.22, 34265.22, 26249.11, 21609.78, 24953.69, 23535.29, 0.000, 0.000, 0.000, 19:14:44.350, 1560010484350
133, 22528.12, 26418.33, 34024.41, 34261.58, 26242.42, 21606.67, 24949.02, 23536.30, 0.000, 0.000, 0.000, 19:14:44.350, 1560010484350
134, 22524.34, 26417.50, 34021.70, 34235.11, 26234.22, 21592.32, 24952.44, 23537.41, 0.000, 0.000, 0.000, 19:14:44.350, 1560010484350
135, 22524.57, 26412.59, 34020.85, 34248.32, 26244.88, 21591.87, 24944.12, 23530.22, 0.000, 0.000, 0.000, 19:14:44.350, 1560010484350
136, 22524.41, 26418.98, 34019.38, 34271.19, 26254.00, 21606.67, 24954.04, 23534.42, 0.000, 0.000, 0.000, 19:14:44.350, 1560010484350
137, 22518.67, 26418.24, 34018.35, 34262.61, 26248.72, 21600.19, 24956.64, 23537.01, 0.000, 0.000, 0.000, 19:14:44.351, 1560010484351
138, 22515.40, 26421.53, 34018.08, 34255.79, 26244.32, 21596.30, 24950.94, 23538.00, 0.000, 0.000, 0.000, 19:14:44.351, 1560010484351
139, 22507.29, 26411.20, 34013.48, 34244.05, 26241.26, 21592.05, 24944.26, 23535.45, 0.014, 0.066, -1.034, 19:14:44.351, 1560010484351
140, 22509.01, 26404.09, 34009.16, 34244.04, 26240.32, 21595.92, 24946.65, 23530.62, 0.000, 0.000, 0.000, 19:14:44.351, 1560010484351
141, 22517.50, 26411.29, 34007.15, 34244.12, 26238.49, 21592.59, 24945.31, 23531.56, 0.000, 0.000, 0.000, 19:14:44.351, 1560010484351
142, 22513.32, 26403.96, 34004.69, 34248.01, 26232.21, 21583.25, 24938.29, 23528.18, 0.000, 0.000, 0.000, 19:14:44.351, 1560010484351
143, 22509.86, 26397.86, 34022.24, 34250.88, 26237.04, 21591.65, 24933.66, 23519.58, 0.000, 0.000, 0.000, 19:14:44.351, 1560010484351
144, 22511.54, 26402.46, 34020.79, 34249.33, 26207.80, 21588.88, 24934.44, 23522.10, 0.000, 0.000, 0.000, 19:14:44.351, 1560010484351
145, 22522.02, 26404.14, 34011.55, 34235.45, 26215.20, 21585.01, 24934.94, 23520.43, 0.000, 0.000, 0.000, 19:14:44.352, 1560010484352
146, 22522.49, 26406.13, 34006.64, 34238.89, 26258.87, 21586.22, 24947.63, 23522.51, 0.000, 0.000, 0.000, 19:14:44.352, 1560010484352
147, 22515.22, 26404.76, 34006.59, 34242.85, 26239.29, 21578.93, 24939.88, 23514.06, 0.000, 0.000, 0.000, 19:14:44.353, 1560010484353
148, 22513.99, 26403.42, 34008.60, 34230.93, 26228.50, 21573.61, 24924.59, 23503.53, 0.000, 0.000, 0.000, 19:14:44.353, 1560010484353
149, 22503.80, 26392.69, 34001.61, 34223.27, 26226.82, 21569.95, 24929.91, 23514.24, 0.008, 0.062, -1.030, 19:14:44.353, 1560010484353
150, 22513.30, 26400.83, 34005.56, 34230.71, 26229.12, 21570.55, 24940.08, 23523.38, 0.000, 0.000, 0.000, 19:14:44.353, 1560010484353
151, 22512.74, 26401.19, 33996.96, 34234.11, 26216.05, 21569.86, 24916.40, 23512.02, 0.000, 0.000, 0.000, 19:14:44.353, 1560010484353
152, 22507.87, 26393.03, 34004.29, 34235.07, 26222.26, 21574.73, 24921.37, 23511.11, 0.000, 0.000, 0.000, 19:14:44.354, 1560010484354
153, 22509.30, 26397.99, 34015.58, 34227.18, 26231.29, 21578.64, 24945.91, 23522.60, 0.000, 0.000, 0.000, 19:14:44.354, 1560010484354
154, 22508.16, 26406.06, 34008.04, 34240.55, 26224.14, 21581.90, 24939.00, 23521.99, 0.000, 0.000, 0.000, 19:14:44.354, 1560010484354
155, 22498.55, 26395.35, 33996.40, 34232.48, 26218.08, 21568.85, 24922.98, 23507.44, 0.000, 0.000, 0.000, 19:14:44.354, 1560010484354
156, 22505.72, 26393.56, 34004.33, 34244.75, 26226.62, 21575.89, 24925.61, 23508.71, 0.000, 0.000, 0.000, 19:14:44.354, 1560010484354
157, 22521.68, 26402.84, 34015.00, 34240.50, 26230.42, 21577.43, 24935.83, 23517.14, 0.000, 0.000, 0.000, 19:14:44.354, 1560010484354
158, 22520.30, 26410.37, 34009.25, 34234.67, 26222.19, 21571.51, 24929.48, 23516.16, 0.000, 0.000, 0.000, 19:14:44.354, 1560010484354
159, 22512.56, 26404.16, 34002.63, 34224.81, 26212.13, 21558.30, 24930.42, 23516.18, 0.012, 0.060, -1.034, 19:14:44.355, 1560010484355
160, 22512.25, 26407.04, 34003.15, 34237.57, 26216.63, 21569.07, 24930.06, 23519.91, 0.000, 0.000, 0.000, 19:14:44.355, 1560010484355
161, 22511.38, 26415.07, 33995.46, 34234.18, 26222.75, 21575.76, 24929.62, 23518.66, 0.000, 0.000, 0.000, 19:14:44.355, 1560010484355
162, 22517.73, 26413.66, 34010.50, 34232.34, 26228.68, 21572.70, 24937.13, 23519.46, 0.000, 0.000, 0.000, 19:14:44.355, 1560010484355
163, 22522.13, 26407.18, 34016.20, 34241.44, 26201.38, 21576.83, 24929.15, 23518.28, 0.000, 0.000, 0.000, 19:14:44.355, 1560010484355
164, 22519.92, 26406.78, 34011.04, 34236.08, 26197.27, 21570.57, 24923.49, 23514.57, 0.000, 0.000, 0.000, 19:14:44.355, 1560010484355
165, 22516.88, 26407.22, 34008.27, 34251.16, 26247.27, 21573.63, 24916.54, 23502.32, 0.000, 0.000, 0.000, 19:14:44.355, 1560010484355
166, 22523.38, 26414.64, 34008.76, 34250.98, 26232.32, 21579.40, 24920.85, 23509.47, 0.000, 0.000, 0.000, 19:14:44.355, 1560010484355
167, 22520.30, 26410.40, 34003.24, 34231.90, 26218.57, 21575.83, 24933.71, 23517.03, 0.000, 0.000, 0.000, 19:14:44.355, 1560010484355
168, 22518.06, 26407.00, 34013.34, 34240.43, 26226.87, 21574.42, 24933.97, 23517.10, 0.000, 0.000, 0.000, 19:14:44.356, 1560010484356
169, 22513.57, 26405.77, 34013.39, 34244.30, 26231.83, 21584.39, 24940.46, 23520.72, 0.004, 0.060, -1.032, 19:14:44.356, 1560010484356
170, 22504.27, 26398.59, 34003.93, 34232.86, 26217.66, 21572.58, 24931.47, 23518.21, 0.000, 0.000, 0.000, 19:14:44.356, 1560010484356
171, 22511.20, 26398.50, 34006.90, 34234.89, 26218.84, 21566.68, 24922.57, 23516.36, 0.000, 0.000, 0.000, 19:14:44.356, 1560010484356
172, 22515.16, 26399.60, 34008.82, 34238.36, 26221.81, 21569.23, 24934.44, 23509.47, 0.000, 0.000, 0.000, 19:14:44.356, 1560010484356
173, 22508.61, 26401.19, 33999.21, 34238.60, 26213.25, 21570.17, 24938.85, 23510.46, 0.000, 0.000, 0.000, 19:14:44.356, 1560010484356
174, 22502.69, 26402.08, 33990.52, 34223.71, 26208.76, 21561.63, 24929.64, 23508.22, 0.000, 0.000, 0.000, 19:14:44.356, 1560010484356
175, 22505.17, 26393.79, 33994.83, 34225.10, 26209.54, 21566.68, 24928.95, 23513.10, 0.000, 0.000, 0.000, 19:14:44.356, 1560010484356
176, 22515.45, 26391.40, 34006.86, 34234.47, 26218.46, 21570.30, 24940.66, 23522.91, 0.000, 0.000, 0.000, 19:14:44.356, 1560010484356
177, 22528.23, 26408.21, 34010.48, 34233.73, 26224.09, 21572.74, 24930.08, 23516.78, 0.000, 0.000, 0.000, 19:14:44.357, 1560010484357
178, 22535.99, 26414.42, 34008.56, 34229.24, 26220.03, 21572.29, 24921.10, 23512.11, 0.000, 0.000, 0.000, 19:14:44.357, 1560010484357
179, 22521.64, 26401.86, 34008.25, 34240.70, 26221.05, 21573.54, 24923.09, 23513.77, 0.002, 0.060, -1.032, 19:14:44.357, 1560010484357
180, 22505.59, 26390.64, 33998.16, 34228.41, 26212.07, 21560.63, 24916.56, 23505.90, 0.000, 0.000, 0.000, 19:14:44.357, 1560010484357
181, 22500.07, 26389.01, 33998.59, 34231.27, 26210.01, 21561.34, 24916.09, 23498.86, 0.000, 0.000, 0.000, 19:14:44.357, 1560010484357
182, 22499.89, 26391.06, 34000.11, 34218.31, 26184.22, 21550.25, 24912.78, 23497.96, 0.000, 0.000, 0.000, 19:14:44.357, 1560010484357
183, 22503.51, 26400.63, 34007.26, 34220.39, 26192.53, 21551.06, 24911.94, 23501.32, 0.000, 0.000, 0.000, 19:14:44.358, 1560010484358
184, 22501.86, 26390.39, 34005.18, 34229.44, 26241.75, 21566.33, 24910.93, 23504.47, 0.000, 0.000, 0.000, 19:14:44.358, 1560010484358
185, 22499.49, 26381.29, 33990.48, 34222.09, 26213.48, 21559.55, 24902.75, 23497.07, 0.000, 0.000, 0.000, 19:14:44.358, 1560010484358
186, 22498.46, 26384.36, 33989.65, 34210.62, 26204.36, 21546.86, 24894.57, 23489.87, 0.000, 0.000, 0.000, 19:14:44.358, 1560010484358
187, 22505.66, 26386.50, 34004.22, 34220.70, 26207.38, 21549.49, 24898.55, 23487.86, 0.000, 0.000, 0.000, 19:14:44.358, 1560010484358
188, 22499.53, 26384.67, 33997.18, 34223.34, 26201.96, 21550.05, 24898.86, 23486.63, 0.000, 0.000, 0.000, 19:14:44.358, 1560010484358
189, 22494.68, 26389.90, 33992.96, 34221.04, 26199.13, 21543.57, 24898.86, 23492.38, 0.006, 0.060, -1.032, 19:14:44.358, 1560010484358
190, 22497.77, 26380.40, 33988.31, 34217.21, 26199.15, 21543.30, 24895.10, 23492.89, 0.000, 0.000, 0.000, 19:14:44.358, 1560010484358
191, 22504.94, 26382.95, 33995.95, 34234.15, 26210.62, 21554.72, 24908.47, 23498.03, 0.000, 0.000, 0.000, 19:14:44.358, 1560010484358
192, 22509.57, 26393.74, 33996.64, 34223.25, 26211.20, 21555.53, 24924.68, 23504.63, 0.000, 0.000, 0.000, 19:14:44.359, 1560010484359
193, 22514.58, 26396.76, 34001.29, 34226.51, 26213.52, 21558.19, 24923.96, 23501.76, 0.000, 0.000, 0.000, 19:14:44.359, 1560010484359
194, 22501.12, 26380.67, 33997.47, 34216.92, 26207.96, 21551.02, 24910.88, 23493.36, 0.000, 0.000, 0.000, 19:14:44.359, 1560010484359
195, 22491.76, 26377.83, 33986.23, 34209.99, 26201.88, 21540.40, 24903.22, 23488.98, 0.000, 0.000, 0.000, 19:14:44.359, 1560010484359
196, 22500.36, 26389.32, 33983.77, 34223.87, 26202.19, 21546.54, 24905.56, 23491.82, 0.000, 0.000, 0.000, 19:14:44.359, 1560010484359
197, 22507.22, 26393.10, 33998.45, 34222.22, 26203.22, 21553.00, 24903.96, 23490.70, 0.000, 0.000, 0.000, 19:14:44.359, 1560010484359
198, 22505.75, 26393.83, 34005.52, 34228.14, 26209.36, 21552.22, 24907.53, 23495.84, 0.000, 0.000, 0.000, 19:14:44.359, 1560010484359
199, 22505.08, 26389.09, 33999.73, 34229.77, 26209.79, 21549.72, 24914.24, 23504.74, 0.006, 0.062, -1.032, 19:14:44.359, 1560010484359
200, 22500.07, 26378.95, 33989.54, 34204.18, 26200.20, 21541.69, 24909.88, 23500.69, 0.000, 0.000, 0.000, 19:14:44.360, 1560010484360
201, 22502.15, 26386.14, 33990.77, 34205.90, 26200.83, 21540.73, 24890.34, 23489.45, 0.000, 0.000, 0.000, 19:14:44.360, 1560010484360
202, 22509.97, 26397.90, 33993.76, 34217.91, 26199.71, 21546.88, 24897.92, 23492.38, 0.000, 0.000, 0.000, 19:14:44.360, 1560010484360
203, 22514.73, 26391.17, 33994.54, 34218.38, 26206.21, 21548.51, 24909.41, 23492.26, 0.000, 0.000, 0.000, 19:14:44.360, 1560010484360
204, 22505.72, 26380.58, 33995.10, 34217.82, 26207.26, 21546.37, 24914.64, 23493.00, 0.000, 0.000, 0.000, 19:14:44.360, 1560010484360
205, 22496.14, 26375.91, 33990.72, 34214.11, 26179.95, 21541.13, 24910.19, 23492.60, 0.000, 0.000, 0.000, 19:14:44.360, 1560010484360
206, 22513.32, 26380.73, 34003.73, 34222.29, 26176.73, 21538.95, 24910.26, 23493.78, 0.000, 0.000, 0.000, 19:14:44.360, 1560010484360
207, 22513.12, 26388.24, 34004.63, 34231.58, 26239.07, 21549.38, 24908.54, 23495.01, 0.000, 0.000, 0.000, 19:14:44.360, 1560010484360
208, 22500.81, 26382.28, 33996.02, 34219.02, 26215.94, 21544.60, 24905.68, 23493.56, 0.000, 0.000, 0.000, 19:14:44.360, 1560010484360
209, 22499.80, 26386.10, 34001.00, 34223.61, 26209.81, 21548.38, 24908.11, 23503.66, 0.006, 0.066, -1.032, 19:14:44.814, 1560010484814
210, 22498.51, 26382.99, 33995.23, 34220.48, 26199.46, 21544.80, 24907.82, 23494.95, 0.000, 0.000, 0.000, 19:14:44.814, 1560010484814
211, 22497.07, 26374.07, 33994.77, 34222.13, 26200.45, 21545.61, 24908.69, 23491.91, 0.000, 0.000, 0.000, 19:14:44.815, 1560010484815
212, 22505.17, 26376.42, 34000.18, 34217.26, 26204.02, 21547.04, 24903.40, 23496.78, 0.000, 0.000, 0.000, 19:14:44.815, 1560010484815
213, 22500.81, 26378.79, 33995.32, 34209.59, 26206.10, 21540.24, 24903.89, 23494.39, 0.000, 0.000, 0.000, 19:14:44.815, 1560010484815
214, 22483.26, 26371.12, 33973.80, 34210.42, 26189.45, 21536.64, 24898.19, 23486.16, 0.000, 0.000, 0.000, 19:14:44.815, 1560010484815
215, 22491.51, 26371.12, 33993.23, 34222.89, 26198.90, 21538.54, 24895.10, 23481.15, 0.000, 0.000, 0.000, 19:14:44.815, 1560010484815
216, 22494.30, 26372.35, 33995.35, 34202.32, 26202.26, 21535.30, 24894.52, 23482.21, 0.000, 0.000, 0.000, 19:14:44.815, 1560010484815
217, 22494.15, 26373.00, 33992.38, 34202.68, 26202.12, 21533.87, 24895.46, 23485.71, 0.000, 0.000, 0.000, 19:14:44.815, 1560010484815
218, 22500.83, 26387.22, 33998.50, 34217.79, 26204.71, 21542.01, 24906.39, 23493.20, 0.000, 0.000, 0.000, 19:14:44.815, 1560010484815
219, 22498.68, 26388.76, 33997.67, 34215.22, 26201.18, 21542.12, 24910.01, 23496.80, 0.008, 0.062, -1.032, 19:14:44.815, 1560010484815
220, 22495.11, 26380.18, 33987.64, 34207.46, 26193.70, 21537.38, 24897.41, 23486.47, 0.000, 0.000, 0.000, 19:14:44.815, 1560010484815
221, 22490.17, 26372.46, 33980.98, 34210.02, 26192.09, 21539.91, 24891.19, 23482.09, 0.000, 0.000, 0.000, 19:14:44.815, 1560010484815
222, 22487.33, 26367.88, 33973.89, 34203.73, 26180.93, 21531.64, 24885.67, 23478.58, 0.000, 0.000, 0.000, 19:14:44.816, 1560010484816
223, 22490.26, 26368.53, 33977.98, 34201.88, 26181.71, 21530.32, 24886.77, 23484.26, 0.000, 0.000, 0.000, 19:14:44.816, 1560010484816
224, 22494.79, 26371.15, 33995.88, 34211.29, 26174.32, 21536.44, 24901.43, 23490.16, 0.000, 0.000, 0.000, 19:14:44.816, 1560010484816
225, 22483.73, 26367.10, 33985.11, 34211.82, 26163.41, 21533.51, 24901.23, 23487.30, 0.000, 0.000, 0.000, 19:14:44.816, 1560010484816
226, 22487.40, 26369.87, 33980.11, 34195.35, 26217.01, 21526.54, 24902.93, 23488.58, 0.000, 0.000, 0.000, 19:14:44.820, 1560010484820
227, 22495.53, 26364.13, 33982.38, 34186.63, 26202.41, 21518.69, 24898.81, 23488.51, 0.000, 0.000, 0.000, 19:14:44.820, 1560010484820
228, 22493.72, 26365.89, 33986.18, 34209.84, 26196.76, 21522.90, 24898.48, 23490.95, 0.000, 0.000, 0.000, 19:14:44.820, 1560010484820
229, 22493.63, 26373.00, 33993.00, 34217.26, 26204.65, 21547.39, 24907.96, 23499.73, 0.006, 0.064, -1.034, 19:14:44.820, 1560010484820
230, 22494.64, 26372.08, 33990.34, 34213.61, 26197.83, 21539.24, 24900.98, 23502.01, 0.000, 0.000, 0.000, 19:14:44.821, 1560010484821
231, 22487.53, 26365.13, 33984.95, 34202.26, 26194.21, 21527.08, 24887.19, 23486.36, 0.000, 0.000, 0.000, 19:14:44.821, 1560010484821
232, 22490.84, 26364.15, 33978.94, 34191.30, 26188.96, 21521.78, 24883.95, 23471.66, 0.000, 0.000, 0.000, 19:14:44.821, 1560010484821
233, 22483.91, 26362.32, 33976.46, 34198.21, 26183.97, 21521.85, 24877.13, 23467.28, 0.000, 0.000, 0.000, 19:14:44.821, 1560010484821
234, 22472.87, 26356.68, 33976.06, 34193.52, 26176.13, 21512.97, 24878.68, 23466.56, 0.000, 0.000, 0.000, 19:14:44.821, 1560010484821
235, 22469.34, 26351.48, 33975.19, 34182.30, 26178.63, 21509.80, 24891.93, 23472.26, 0.000, 0.000, 0.000, 19:14:44.821, 1560010484821
236, 22455.81, 26349.22, 33976.57, 34181.67, 26183.86, 21496.19, 24886.99, 23471.14, 0.000, 0.000, 0.000, 19:14:44.821, 1560010484821
237, 22457.78, 26348.71, 33975.72, 34191.46, 26188.20, 21513.46, 24891.44, 23476.91, 0.000, 0.000, 0.000, 19:14:44.822, 1560010484822
238, 22463.68, 26355.59, 33982.27, 34197.21, 26192.02, 21522.23, 24899.87, 23487.68, 0.006, 0.060, -1.032, 19:14:44.822, 1560010484822
239, 22456.75, 26360.57, 33974.67, 34188.69, 26176.82, 21518.56, 24897.85, 23488.31, 0.000, 0.000, 0.000, 19:14:44.822, 1560010484822
240, 22457.31, 26356.71, 33967.03, 34196.20, 26167.10, 21516.97, 24891.08, 23480.91, 0.000, 0.000, 0.000, 19:14:44.822, 1560010484822
241, 22454.43, 26349.67, 33965.60, 34190.95, 26138.98, 21513.51, 24886.52, 23475.30, 0.000, 0.000, 0.000, 19:14:44.822, 1560010484822
242, 22464.93, 26360.82, 33980.06, 34184.42, 26182.92, 21518.67, 24890.66, 23483.32, 0.000, 0.000, 0.000, 19:14:44.822, 1560010484822
243, 22465.67, 26372.40, 33975.97, 34175.88, 26213.30, 21509.51, 24904.27, 23489.09, 0.000, 0.000, 0.000, 19:14:44.822, 1560010484822
244, 22449.67, 26362.52, 33966.16, 34196.07, 26181.56, 21524.35, 24891.42, 23476.66, 0.000, 0.000, 0.000, 19:14:44.822, 1560010484822
245, 22444.35, 26355.05, 33978.07, 34191.24, 26177.85, 21524.46, 24881.65, 23471.48, 0.000, 0.000, 0.000, 19:14:44.822, 1560010484822
246, 22442.89, 26349.08, 33977.87, 34183.50, 26181.92, 21505.95, 24879.23, 23472.68, 0.000, 0.000, 0.000, 19:14:44.822, 1560010484822
247, 22452.17, 26360.04, 33980.21, 34190.73, 26190.16, 21519.59, 24894.43, 23484.96, 0.000, 0.000, 0.000, 19:14:44.822, 1560010484822
248, 22450.65, 26365.49, 33976.91, 34191.15, 26186.77, 21528.06, 24899.17, 23490.74, 0.004, 0.062, -1.030, 19:14:44.822, 1560010484822
249, 22442.07, 26356.86, 33973.51, 34197.09, 26182.83, 21523.23, 24891.26, 23492.04, 0.000, 0.000, 0.000, 19:14:44.822, 1560010484822
250, 22438.40, 26348.53, 33969.96, 34189.38, 26180.93, 21514.43, 24874.47, 23479.84, 0.000, 0.000, 0.000, 19:14:44.823, 1560010484823
251, 22436.61, 26349.42, 33970.38, 34183.50, 26185.11, 21509.96, 24887.39, 23477.56, 0.000, 0.000, 0.000, 19:14:44.823, 1560010484823
252, 22445.69, 26357.31, 33979.81, 34190.19, 26190.23, 21514.16, 24897.14, 23481.91, 0.000, 0.000, 0.000, 19:14:44.823, 1560010484823
253, 22450.94, 26360.28, 33986.12, 34203.00, 26197.54, 21526.85, 24906.77, 23496.73, 0.000, 0.000, 0.000, 19:14:44.823, 1560010484823
254, 22443.99, 26358.63, 33983.93, 34203.31, 26192.47, 21525.80, 24911.33, 23496.18, 0.000, 0.000, 0.000, 19:14:44.823, 1560010484823
255, 22436.03, 26353.87, 33975.50, 34192.56, 26185.83, 21519.07, 24902.81, 23492.89, 0.000, 0.000, 0.000, 19:14:44.823, 1560010484823
0, 22430.80, 26346.09, 33964.17, 34180.87, 26172.64, 21514.54, 24888.35, 23473.94, 0.000, 0.000, 0.000, 19:14:44.823, 1560010484823
1, 22433.86, 26341.33, 33962.98, 34186.37, 26181.31, 21513.46, 24882.38, 23462.09, 0.000, 0.000, 0.000, 19:14:44.823, 1560010484823
2, 22439.14, 26349.15, 33978.88, 34190.59, 26189.27, 21513.69, 24879.73, 23471.63, 0.006, 0.062, -1.030, 19:14:44.824, 1560010484824
3, 22433.28, 26344.30, 33976.13, 34187.80, 26182.68, 21511.94, 24882.81, 23480.80, 0.000, 0.000, 0.000, 19:14:44.824, 1560010484824
4, 22435.32, 26343.72, 33973.40, 34188.64, 26181.33, 21511.70, 24887.86, 23484.08, 0.000, 0.000, 0.000, 19:14:44.824, 1560010484824
5, 22436.72, 26343.18, 33966.27, 34184.71, 26174.76, 21514.51, 24892.33, 23483.41, 0.000, 0.000, 0.000, 19:14:44.824, 1560010484824
6, 22442.11, 26344.62, 33972.35, 34184.38, 26183.88, 21508.84, 24898.37, 23488.51, 0.000, 0.000, 0.000, 19:14:44.824, 1560010484824
7, 22428.21, 26333.95, 33968.86, 34181.79, 26174.18, 21503.85, 24886.99, 23473.49, 0.000, 0.000, 0.000, 19:14:44.824, 1560010484824
8, 22420.72, 26327.96, 33968.68, 34171.86, 26137.15, 21495.58, 24889.70, 23474.79, 0.000, 0.000, 0.000, 19:14:44.824, 1560010484824
9, 22429.53, 26330.31, 33970.89, 34177.56, 26174.18, 21506.96, 24888.18, 23474.11, 0.000, 0.000, 0.000, 19:14:44.824, 1560010484824
10, 22422.69, 26328.70, 33968.75, 34190.10, 26187.50, 21506.85, 24881.54, 23471.10, 0.000, 0.000, 0.000, 19:14:44.824, 1560010484824
11, 22424.37, 26340.99, 33974.88, 34184.00, 26181.56, 21507.16, 24887.41, 23479.08, 0.000, 0.000, 0.000, 19:14:44.824, 1560010484824
12, 22427.36, 26349.67, 33972.57, 34161.49, 26184.35, 21503.99, 24891.08, 23481.20, 0.008, 0.062, -1.036, 19:14:44.825, 1560010484825
13, 22419.00, 26339.12, 33964.50, 34159.48, 26177.02, 21498.35, 24893.34, 23479.34, 0.000, 0.000, 0.000, 19:14:44.825, 1560010484825
14, 22417.17, 26334.78, 33962.83, 34176.26, 26172.55, 21505.35, 24891.95, 23481.47, 0.000, 0.000, 0.000, 19:14:44.825, 1560010484825
15, 22414.51, 26329.13, 33959.32, 34178.43, 26168.21, 21502.89, 24889.40, 23477.56, 0.000, 0.000, 0.000, 19:14:44.825, 1560010484825
16, 22423.89, 26332.23, 33961.86, 34175.68, 26170.79, 21501.88, 24885.67, 23477.56, 0.000, 0.000, 0.000, 19:14:44.825, 1560010484825
17, 22417.46, 26327.94, 33952.88, 34170.74, 26168.88, 21494.60, 24878.41, 23476.06, 0.000, 0.000, 0.000, 19:14:44.825, 1560010484825
18, 22400.25, 26312.12, 33944.14, 34160.19, 26155.65, 21484.81, 24874.18, 23467.01, 0.000, 0.000, 0.000, 19:14:44.825, 1560010484825
19, 22392.29, 26297.14, 33945.39, 34160.86, 26155.14, 21497.42, 24872.71, 23464.99, 0.000, 0.000, 0.000, 19:14:44.825, 1560010484825
20, 22385.47, 26291.26, 33944.57, 34158.18, 26161.33, 21492.12, 24872.33, 23466.94, 0.000, 0.000, 0.000, 19:14:44.825, 1560010484825
21, 22371.93, 26275.93, 33927.38, 34140.63, 26160.21, 21479.38, 24870.92, 23463.01, 0.000, 0.000, 0.000, 19:14:44.825, 1560010484825
22, 22355.95, 26253.87, 33930.91, 34135.79, 26158.07, 21474.75, 24872.44, 23466.00, 0.004, 0.062, -1.032, 19:14:44.825, 1560010484825
23, 22327.20, 26226.96, 33916.56, 34126.60, 26148.01, 21468.27, 24872.60, 23458.45, 0.000, 0.000, 0.000, 19:14:44.825, 1560010484825
24, 22306.21, 26201.52, 33902.90, 34124.27, 26132.74, 21473.43, 24849.98, 23443.80, 0.000, 0.000, 0.000, 19:14:44.826, 1560010484826
25, 22280.55, 26168.84, 33889.33, 34111.84, 26101.83, 21479.00, 24862.94, 23451.52, 0.000, 0.000, 0.000, 19:14:44.826, 1560010484826
26, 22254.92, 26140.56, 33895.73, 34109.21, 26120.34, 21480.23, 24883.99, 23466.40, 0.000, 0.000, 0.000, 19:14:44.826, 1560010484826
27, 22237.19, 26122.13, 33894.63, 34108.63, 26175.08, 21481.59, 24874.54, 23466.74, 0.000, 0.000, 0.000, 19:14:44.826, 1560010484826
28, 22214.97, 26094.86, 33877.67, 34096.71, 26147.18, 21474.06, 24878.29, 23467.34, 0.000, 0.000, 0.000, 19:14:44.826, 1560010484826
29, 22198.16, 26071.07, 33865.11, 34090.39, 26136.50, 21465.97, 24883.32, 23468.82, 0.000, 0.000, 0.000, 19:14:44.826, 1560010484826
30, 22181.54, 26054.71, 33855.94, 34081.36, 26124.81, 21467.17, 24886.52, 23468.08, 0.000, 0.000, 0.000, 19:14:44.826, 1560010484826
31, 22180.73, 26048.61, 33863.45, 34076.02, 26132.14, 21462.55, 24893.65, 23477.24, 0.000, 0.000, 0.000, 19:14:44.826, 1560010484826
32, 22185.65, 26041.70, 33866.78, 34086.27, 26141.21, 21468.65, 24883.06, 23473.73, 0.004, 0.066, -1.040, 19:14:44.827, 1560010484827
33, 22164.62, 26033.10, 33854.31, 34067.14, 26133.05, 21467.93, 24871.19, 23471.48, 0.000, 0.000, 0.000, 19:14:44.829, 1560010484829
34, 22165.33, 26046.78, 33852.01, 34058.34, 26132.18, 21467.91, 24876.24, 23473.44, 0.000, 0.000, 0.000, 19:14:44.830, 1560010484830
35, 22170.85, 26050.04, 33855.31, 34089.54, 26137.66, 21471.42, 24885.18, 23476.73, 0.000, 0.000, 0.000, 19:14:44.830, 1560010484830
36, 22165.51, 26054.58, 33856.81, 34088.40, 26136.70, 21472.27, 24883.23, 23470.87, 0.000, 0.000, 0.000, 19:14:44.830, 1560010484830
37, 22172.28, 26055.90, 33861.44, 34067.45, 26132.54, 21467.42, 24876.82, 23466.85, 0.000, 0.000, 0.000, 19:14:44.830, 1560010484830
38, 22169.98, 26048.14, 33862.69, 34076.69, 26137.95, 21471.35, 24872.64, 23466.47, 0.000, 0.000, 0.000, 19:14:44.830, 1560010484830
39, 22173.47, 26049.97, 33855.83, 34073.22, 26130.75, 21465.68, 24856.23, 23457.44, 0.000, 0.000, 0.000, 19:14:44.830, 1560010484830
40, 22189.18, 26070.18, 33859.16, 34079.52, 26128.58, 21463.15, 24869.73, 23459.38, 0.000, 0.000, 0.000, 19:14:44.830, 1560010484830
41, 22198.86, 26073.24, 33866.54, 34082.95, 26132.36, 21460.76, 24875.52, 23465.13, 0.000, 0.000, 0.000, 19:14:44.830, 1560010484830
42, 22210.21, 26091.86, 33877.82, 34089.25, 26140.61, 21464.16, 24866.38, 23469.40, 0.008, 0.060, -1.038, 19:14:44.830, 1560010484830
43, 22210.32, 26100.13, 33875.66, 34090.39, 26137.44, 21455.60, 24872.55, 23462.80, 0.000, 0.000, 0.000, 19:14:44.831, 1560010484831
44, 22210.44, 26100.51, 33871.52, 34089.74, 26119.11, 21456.24, 24869.18, 23461.15, 0.000, 0.000, 0.000, 19:14:44.831, 1560010484831
45, 22219.96, 26109.03, 33873.87, 34095.93, 26082.03, 21466.79, 24858.58, 23453.97, 0.000, 0.000, 0.000, 19:14:44.831, 1560010484831
46, 22244.05, 26135.94, 33889.85, 34111.13, 26155.18, 21477.54, 24872.06, 23473.73, 0.000, 0.000, 0.000, 19:14:44.831, 1560010484831
47, 22253.53, 26153.93, 33898.34, 34113.25, 26156.14, 21477.05, 24888.58, 23486.56, 0.000, 0.000, 0.000, 19:14:44.831, 1560010484831
48, 22250.87, 26151.96, 33887.61, 34105.59, 26137.08, 21475.09, 24890.77, 23482.21, 0.000, 0.000, 0.000, 19:14:44.831, 1560010484831
49, 22242.82, 26143.81, 33883.07, 34092.69, 26133.57, 21461.99, 24875.10, 23462.65, 0.000, 0.000, 0.000, 19:14:44.831, 1560010484831
50, 22238.58, 26139.09, 33869.53, 34087.91, 26124.88, 21451.44, 24856.44, 23441.62, 0.000, 0.000, 0.000, 19:14:44.831, 1560010484831
51, 22253.60, 26153.19, 33881.93, 34095.55, 26131.07, 21454.97, 24850.71, 23438.51, 0.000, 0.000, 0.000, 19:14:44.831, 1560010484831
52, 22261.33, 26164.55, 33884.71, 34110.46, 26128.65, 21452.71, 24855.79, 23442.53, 0.008, 0.068, -1.036, 19:14:44.831, 1560010484831
53, 22255.99, 26163.36, 33875.27, 34111.80, 26115.08, 21454.12, 24859.56, 23449.28, 0.000, 0.000, 0.000, 19:14:44.831, 1560010484831
54, 22264.97, 26176.57, 33885.55, 34099.80, 26121.19, 21456.00, 24867.61, 23459.14, 0.000, 0.000, 0.000, 19:14:44.831, 1560010484831
55, 22274.18, 26185.09, 33886.00, 34080.22, 26123.56, 21451.21, 24863.16, 23453.37, 0.000, 0.000, 0.000, 19:14:44.831, 1560010484831
56, 22295.08, 26203.26, 33901.31, 34109.95, 26139.67, 21470.55, 24864.39, 23462.09, 0.000, 0.000, 0.000, 19:14:44.831, 1560010484831
57, 22306.66, 26213.48, 33912.36, 34131.58, 26135.71, 21479.09, 24864.28, 23460.64, 0.000, 0.000, 0.000, 19:14:44.831, 1560010484831
58, 22303.55, 26210.57, 33916.69, 34129.66, 26146.58, 21480.09, 24880.91, 23469.49, 0.000, 0.000, 0.000, 19:14:44.832, 1560010484832
59, 22299.35, 26205.47, 33908.13, 34120.63, 26143.00, 21477.48, 24882.27, 23466.49, 0.000, 0.000, 0.000, 19:14:44.832, 1560010484832
60, 22300.87, 26207.33, 33906.05, 34121.30, 26138.08, 21470.71, 24869.62, 23456.05, 0.000, 0.000, 0.000, 19:14:44.832, 1560010484832
61, 22318.24, 26212.34, 33909.29, 34127.38, 26143.11, 21470.39, 24871.97, 23461.20, 0.000, 0.000, 0.000, 19:14:44.832, 1560010484832
62, 22321.30, 26221.34, 33911.26, 34135.88, 26144.88, 21481.23, 24872.44, 23466.29, 0.010, 0.066, -1.036, 19:14:44.832, 1560010484832
63, 22312.11, 26232.36, 33910.99, 34133.46, 26115.62, 21476.76, 24875.28, 23470.56, 0.000, 0.000, 0.000, 19:14:44.832, 1560010484832
64, 22309.92, 26233.97, 33909.09, 34130.06, 26104.40, 21474.35, 24874.90, 23475.14, 0.000, 0.000, 0.000, 19:14:44.832, 1560010484832
65, 22309.79, 26229.73, 33898.52, 34133.26, 26160.21, 21476.99, 24870.81, 23460.21, 0.000, 0.000, 0.000, 19:14:44.832, 1560010484832
66, 22317.84, 26235.00, 33915.66, 34131.02, 26147.14, 21474.82, 24871.41, 23460.14, 0.000, 0.000, 0.000, 19:14:44.832, 1560010484832
67, 22321.28, 26242.09, 33917.86, 34134.84, 26138.55, 21476.63, 24873.09, 23464.84, 0.000, 0.000, 0.000, 19:14:44.832, 1560010484832
68, 22318.33, 26241.42, 33915.78, 34131.58, 26134.06, 21474.04, 24863.32, 23461.64, 0.000, 0.000, 0.000, 19:14:44.832, 1560010484832
69, 22317.28, 26240.03, 33905.16, 34139.11, 26129.46, 21478.24, 24865.02, 23461.37, 0.000, 0.000, 0.000, 19:14:44.833, 1560010484833
70, 22326.55, 26238.87, 33908.47, 34155.32, 26131.22, 21482.10, 24872.93, 23460.52, 0.000, 0.000, 0.000, 19:14:44.833, 1560010484833
71, 22337.51, 26244.81, 33921.36, 34139.14, 26140.61, 21478.33, 24866.67, 23453.93, 0.000, 0.000, 0.000, 19:14:44.833, 1560010484833
72, 22342.00, 26255.90, 33922.88, 34137.06, 26141.93, 21485.03, 24869.29, 23460.12, 0.012, 0.060, -1.034, 19:14:44.833, 1560010484833
73, 22333.21, 26253.96, 33919.00, 34141.13, 26142.76, 21484.99, 24853.64, 23454.62, 0.000, 0.000, 0.000, 19:14:45.303, 1560010485303
74, 22327.29, 26250.78, 33915.22, 34139.72, 26140.54, 21479.71, 24850.31, 23445.77, 0.000, 0.000, 0.000, 19:14:45.303, 1560010485303
75, 22324.09, 26248.97, 33913.50, 34136.43, 26138.87, 21472.81, 24862.07, 23443.67, 0.000, 0.000, 0.000, 19:14:45.304, 1560010485304
76, 22329.12, 26255.23, 33919.24, 34137.80, 26144.46, 21469.99, 24868.93, 23450.64, 0.000, 0.000, 0.000, 19:14:45.304, 1560010485304
77, 22333.57, 26260.30, 33922.86, 34140.30, 26145.86, 21476.29, 24867.86, 23452.66, 0.000, 0.000, 0.000, 19:14:45.304, 1560010485304
78, 22329.57, 26251.32, 33924.02, 34132.90, 26140.07, 21470.91, 24855.14, 23447.00, 0.000, 0.000, 0.000, 19:14:45.304, 1560010485304
79, 22331.83, 26248.26, 33926.24, 34131.18, 26143.92, 21468.96, 24859.90, 23448.79, 0.000, 0.000, 0.000, 19:14:45.304, 1560010485304
80, 22337.08, 26249.80, 33921.77, 34113.03, 26142.62, 21459.15, 24859.16, 23447.52, 0.000, 0.000, 0.000, 19:14:45.305, 1560010485305
81, 22343.38, 26252.44, 33925.90, 34120.52, 26145.82, 21466.23, 24861.55, 23449.73, 0.000, 0.000, 0.000, 19:14:45.305, 1560010485305
82, 22346.40, 26254.92, 33927.24, 34153.09, 26144.34, 21482.22, 24863.25, 23453.82, 0.010, 0.066, -1.034, 19:14:45.305, 1560010485305
83, 22329.59, 26246.51, 33906.34, 34131.29, 26092.33, 21462.52, 24846.49, 23440.59, 0.000, 0.000, 0.000, 19:14:45.305, 1560010485305
84, 22334.71, 26256.46, 33921.72, 34133.46, 26101.49, 21465.70, 24853.98, 23443.47, 0.000, 0.000, 0.000, 19:14:45.305, 1560010485305
85, 22330.40, 26253.42, 33909.83, 34130.26, 26154.24, 21460.11, 24852.30, 23445.06, 0.000, 0.000, 0.000, 19:14:45.305, 1560010485305
86, 22342.22, 26250.98, 33929.32, 34138.31, 26150.38, 21470.95, 24850.76, 23448.05, 0.000, 0.000, 0.000, 19:14:45.306, 1560010485306
87, 22342.42, 26259.90, 33937.70, 34138.49, 26153.51, 21467.26, 24850.15, 23450.38, 0.000, 0.000, 0.000, 19:14:45.306, 1560010485306
88, 22333.59, 26264.71, 33930.86, 34123.54, 26141.79, 21458.93, 24849.78, 23445.97, 0.000, 0.000, 0.000, 19:14:45.306, 1560010485306
89, 22323.02, 26253.58, 33921.21, 34118.89, 26132.88, 21456.04, 24852.21, 23444.16, 0.000, 0.000, 0.000, 19:14:45.306, 1560010485306
90, 22331.20, 26248.90, 33929.14, 34128.36, 26142.11, 21461.25, 24852.52, 23447.58, 0.000, 0.000, 0.000, 19:14:45.307, 1560010485307
91, 22342.83, 26260.64, 33937.46, 34143.70, 26150.02, 21469.10, 24868.75, 23459.29, 0.000, 0.000, 0.000, 19:14:45.307, 1560010485307
92, 22341.84, 26261.49, 33932.25, 34145.75, 26144.03, 21466.03, 24871.77, 23458.67, 0.004, 0.068, -1.028, 19:14:45.307, 1560010485307
93, 22328.68, 26250.89, 33924.38, 34133.66, 26133.12, 21444.35, 24845.06, 23442.89, 0.000, 0.000, 0.000, 19:14:45.307, 1560010485307
94, 22318.89, 26239.14, 33912.89, 34105.30, 26122.01, 21442.72, 24842.49, 23437.05, 0.000, 0.000, 0.000, 19:14:45.308, 1560010485308
95, 22321.14, 26238.62, 33915.13, 34119.09, 26132.07, 21462.70, 24851.09, 23438.11, 0.000, 0.000, 0.000, 19:14:45.308, 1560010485308
96, 22327.65, 26246.22, 33918.19, 34125.64, 26132.27, 21454.28, 24855.99, 23441.44, 0.000, 0.000, 0.000, 19:14:45.310, 1560010485310
97, 22326.80, 26247.32, 33916.38, 34115.33, 26129.17, 21448.85, 24852.81, 23436.27, 0.000, 0.000, 0.000, 19:14:45.310, 1560010485310
98, 22316.25, 26243.25, 33917.61, 34111.64, 26125.52, 21444.73, 24848.63, 23438.37, 0.000, 0.000, 0.000, 19:14:45.310, 1560010485310
99, 22309.90, 26242.04, 33915.15, 34114.89, 26126.66, 21448.06, 24844.14, 23440.25, 0.000, 0.000, 0.000, 19:14:45.310, 1560010485310
100, 22316.74, 26243.94, 33910.50, 34112.54, 26126.08, 21450.97, 24854.49, 23444.21, 0.000, 0.000, 0.000, 19:14:45.311, 1560010485311
101, 22323.04, 26243.65, 33907.21, 34117.86, 26119.96, 21448.91, 24855.43, 23445.44, 0.002, 0.066, -1.024, 19:14:45.311, 1560010485311
102, 22335.05, 26254.83, 33930.24, 34130.44, 26143.02, 21458.10, 24870.00, 23452.28, 0.000, 0.000, 0.000, 19:14:45.311, 1560010485311
103, 22322.73, 26252.59, 33930.93, 34112.52, 26123.15, 21444.73, 24861.91, 23446.44, 0.000, 0.000, 0.000, 19:14:45.312, 1560010485312
104, 22315.85, 26242.71, 33920.63, 34107.20, 26086.18, 21439.01, 24849.64, 23438.75, 0.000, 0.000, 0.000, 19:14:45.312, 1560010485312
105, 22323.96, 26249.57, 33921.63, 34134.62, 26151.85, 21468.63, 24855.00, 23449.64, 0.000, 0.000, 0.000, 19:14:45.312, 1560010485312
106, 22328.03, 26257.53, 33923.09, 34136.30, 26149.48, 21462.21, 24860.01, 23455.49, 0.000, 0.000, 0.000, 19:14:45.312, 1560010485312
107, 22327.89, 26253.22, 33920.07, 34130.02, 26140.41, 21459.39, 24860.21, 23456.43, 0.000, 0.000, 0.000, 19:14:45.313, 1560010485313
108, 22316.76, 26250.51, 33914.41, 34123.31, 26129.99, 21459.75, 24850.76, 23442.20, 0.000, 0.000, 0.000, 19:14:45.313, 1560010485313
109, 22311.38, 26240.14, 33909.11, 34119.11, 26111.78, 21449.29, 24838.00, 23430.82, 0.000, 0.000, 0.000, 19:14:45.313, 1560010485313
110, 22325.82, 26246.51, 33920.65, 34114.86, 26130.80, 21448.96, 24843.63, 23439.11, 0.000, 0.000, 0.000, 19:14:45.313, 1560010485313
111, 22316.29, 26260.08, 33917.16, 34109.25, 26128.21, 21442.32, 24840.50, 23436.07, 0.004, 0.062, -1.032, 19:14:45.313, 1560010485313
112, 22311.29, 26252.03, 33921.74, 34125.26, 26133.61, 21448.35, 24843.25, 23439.36, 0.000, 0.000, 0.000, 19:14:45.314, 1560010485314
113, 22310.91, 26243.05, 33918.19, 34134.09, 26130.33, 21460.63, 24848.05, 23443.02, 0.000, 0.000, 0.000, 19:14:45.314, 1560010485314
114, 22308.02, 26238.00, 33909.92, 34107.51, 26125.57, 21452.55, 24841.68, 23436.27, 0.000, 0.000, 0.000, 19:14:45.314, 1560010485314
115, 22308.36, 26237.24, 33912.18, 34112.88, 26127.24, 21455.69, 24840.83, 23434.89, 0.000, 0.000, 0.000, 19:14:45.314, 1560010485314
116, 22319.54, 26247.50, 33923.15, 34125.95, 26133.05, 21460.22, 24847.29, 23440.88, 0.000, 0.000, 0.000, 19:14:45.314, 1560010485314
117, 22327.13, 26255.68, 33921.18, 34122.35, 26126.35, 21446.95, 24839.02, 23433.08, 0.000, 0.000, 0.000, 19:14:45.315, 1560010485315
118, 22325.08, 26255.16, 33915.89, 34123.67, 26117.01, 21445.80, 24826.91, 23429.81, 0.000, 0.000, 0.000, 19:14:45.315, 1560010485315
119, 22313.57, 26245.15, 33916.18, 34124.27, 26128.85, 21454.39, 24840.86, 23442.64, 0.000, 0.000, 0.000, 19:14:45.315, 1560010485315
120, 22304.45, 26235.78, 33908.40, 34121.30, 26124.16, 21454.23, 24848.61, 23445.82, 0.000, 0.000, 0.000, 19:14:45.315, 1560010485315
121, 22310.26, 26237.50, 33910.55, 34118.55, 26081.13, 21445.98, 24841.93, 23440.43, 0.000, 0.064, -1.028, 19:14:45.316, 1560010485316
122, 22313.59, 26243.88, 33909.00, 34119.02, 26130.31, 21446.56, 24842.49, 23441.68, 0.000, 0.000, 0.000, 19:14:45.316, 1560010485316
123, 22310.93, 26245.48, 33909.18, 34117.16, 26144.41, 21445.80, 24848.95, 23444.52, 0.000, 0.000, 0.000, 19:14:45.316, 1560010485316
124, 22311.64, 26241.97, 33911.60, 34125.21, 26131.51, 21455.73, 24843.70, 23443.36, 0.000, 0.000, 0.000, 19:14:45.316, 1560010485316
125, 22320.32, 26243.21, 33912.47, 34122.93, 26125.90, 21454.32, 24839.25, 23437.61, 0.000, 0.000, 0.000, 19:14:45.317, 1560010485317
126, 22317.43, 26238.02, 33904.11, 34112.23, 26122.13, 21440.93, 24838.02, 23434.35, 0.000, 0.000, 0.000, 19:14:45.318, 1560010485318
127, 22315.85, 26237.91, 33904.36, 34100.69, 26123.47, 21431.05, 24832.29, 23430.42, 0.000, 0.000, 0.000, 19:14:45.318, 1560010485318
