%OpenBCI Raw EEG Data
%Number of channels = 8
%Sample Rate = 250.0 Hz
%First Column = SampleIndex
%Last Column = Timestamp 
%Other Columns = EEG data in microvolts followed by Accel Data (in G) interleaved with Aux Data
0, 28264.23, 27134.35, 28502.43, 20794.54, 28156.89, 22998.13, 18577.34, 28283.56, 0.004, 0.024, -0.518, 14:15:23.341, 1560597323341
1, 28188.21, 27086.74, 28441.61, 20713.29, 28132.24, 22950.88, 18513.19, 28242.41, 0.000, 0.000, 0.000, 14:15:23.342, 1560597323342
2, 28188.21, 27076.70, 28437.14, 20708.33, 28126.32, 22950.88, 18505.30, 28240.85, 0.000, 0.000, 0.000, 14:15:23.342, 1560597323342
3, 28271.31, 27148.61, 28509.63, 20793.92, 28147.91, 23005.78, 18579.64, 28296.82, 0.000, 0.000, 0.000, 14:15:23.342, 1560597323342
4, 28328.20, 27179.23, 28544.65, 20840.05, 28166.04, 23030.52, 18625.89, 28324.76, 0.000, 0.000, 0.000, 14:15:23.342, 1560597323342
5, 28307.43, 27128.87, 28499.30, 20787.52, 28154.32, 22995.90, 18581.85, 28292.46, 0.000, 0.000, 0.000, 14:15:23.342, 1560597323342
6, 28239.44, 27080.86, 28454.75, 20724.63, 28142.95, 22962.48, 18525.04, 28251.69, 0.000, 0.000, 0.000, 14:15:23.342, 1560597323342
7, 28174.11, 27071.00, 28444.94, 20723.42, 28135.08, 22960.02, 18509.35, 28245.59, 0.006, 0.036, -0.774, 14:15:23.342, 1560597323342
8, 28273.44, 27146.51, 28506.01, 20819.49, 28154.77, 23017.67, 18583.89, 28303.77, 0.000, 0.000, 0.000, 14:15:23.343, 1560597323343
9, 28330.54, 27179.16, 28529.18, 20853.62, 28160.20, 23031.97, 18627.94, 28331.39, 0.000, 0.000, 0.000, 14:15:23.343, 1560597323343
10, 28280.16, 27143.42, 28504.69, 20792.89, 28148.33, 22992.66, 18590.24, 28302.78, 0.000, 0.000, 0.000, 14:15:23.343, 1560597323343
11, 28179.49, 27086.00, 28445.05, 20722.26, 28136.29, 22956.00, 18531.85, 28262.64, 0.000, 0.000, 0.000, 14:15:23.343, 1560597323343
12, 28137.72, 27066.13, 28431.55, 20715.95, 28131.99, 22954.32, 18510.73, 28251.67, 0.000, 0.000, 0.000, 14:15:23.343, 1560597323343
13, 28246.79, 27137.54, 28508.62, 20811.84, 28155.82, 23016.17, 18584.54, 28308.55, 0.000, 0.000, 0.000, 14:15:23.344, 1560597323344
14, 28350.42, 27189.78, 28564.25, 20859.07, 28173.57, 23045.12, 18636.79, 28345.83, 0.000, 0.000, 0.000, 14:15:23.344, 1560597323344
15, 28345.45, 27157.99, 28510.45, 20793.25, 28155.84, 23007.25, 18596.27, 28312.66, 0.000, 0.000, 0.000, 14:15:23.344, 1560597323344
16, 28207.03, 27086.20, 28439.00, 20715.28, 28132.82, 22959.78, 18524.63, 28259.51, 0.000, 0.000, 0.000, 14:15:23.345, 1560597323345
17, 28142.90, 27083.34, 28439.78, 20713.88, 28126.74, 22957.23, 18502.15, 28248.60, 0.006, 0.044, -0.898, 14:15:23.345, 1560597323345
18, 28260.83, 27149.68, 28509.09, 20811.80, 28152.02, 23013.22, 18573.92, 28297.71, 0.000, 0.000, 0.000, 14:15:23.346, 1560597323346
19, 28330.12, 27176.61, 28537.99, 20858.24, 28165.79, 23039.71, 18632.48, 28336.51, 0.000, 0.000, 0.000, 14:15:23.347, 1560597323347
20, 28292.46, 27141.57, 28501.89, 20802.57, 28156.45, 23009.02, 18605.84, 28321.43, 0.000, 0.000, 0.000, 14:15:23.347, 1560597323347
21, 28196.37, 27084.88, 28451.82, 20727.62, 28142.01, 22969.63, 18535.16, 28274.87, 0.000, 0.000, 0.000, 14:15:23.347, 1560597323347
22, 28178.55, 27075.54, 28435.06, 20724.16, 28137.56, 22963.64, 18511.58, 28259.38, 0.000, 0.000, 0.000, 14:15:23.348, 1560597323348
23, 28265.97, 27144.87, 28510.61, 20817.25, 28156.36, 23016.84, 18580.18, 28305.06, 0.000, 0.000, 0.000, 14:15:23.349, 1560597323349
24, 28338.68, 27185.44, 28555.65, 20860.90, 28167.13, 23042.50, 18628.97, 28338.52, 0.000, 0.000, 0.000, 14:15:23.350, 1560597323350
25, 28311.93, 27154.24, 28520.62, 20811.20, 28163.62, 23018.74, 18601.86, 28320.49, 0.000, 0.000, 0.000, 14:15:23.351, 1560597323351
26, 28197.39, 27106.21, 28456.74, 20737.75, 28151.71, 22978.33, 18538.00, 28275.18, 0.004, 0.042, -0.964, 14:15:23.352, 1560597323352
27, 28143.73, 27102.79, 28444.25, 20725.19, 28144.04, 22972.43, 18515.89, 28261.52, 0.000, 0.000, 0.000, 14:15:23.352, 1560597323352
28, 28246.52, 27166.51, 28521.25, 20822.41, 28165.63, 23029.74, 18589.32, 28312.13, 0.000, 0.000, 0.000, 14:15:23.353, 1560597323353
29, 28338.23, 27204.89, 28555.54, 20868.55, 28174.57, 23048.13, 18631.81, 28336.56, 0.000, 0.000, 0.000, 14:15:23.353, 1560597323353
30, 28292.70, 27154.60, 28513.54, 20809.99, 28162.21, 23014.99, 18593.66, 28313.98, 0.000, 0.000, 0.000, 14:15:23.353, 1560597323353
31, 28199.74, 27089.60, 28445.79, 20736.03, 28142.70, 22971.20, 18536.44, 28275.36, 0.000, 0.000, 0.000, 14:15:23.353, 1560597323353
32, 28165.32, 27083.74, 28437.10, 20725.81, 28140.87, 22966.51, 18517.26, 28267.15, 0.000, 0.000, 0.000, 14:15:23.354, 1560597323354
33, 28283.81, 27163.34, 28517.32, 20819.55, 28165.46, 23027.84, 18589.41, 28325.52, 0.000, 0.000, 0.000, 14:15:23.354, 1560597323354
34, 28365.99, 27188.55, 28560.90, 20868.33, 28178.66, 23053.46, 18637.67, 28354.10, 0.000, 0.000, 0.000, 14:15:23.354, 1560597323354
35, 28305.31, 27144.27, 28511.55, 20818.55, 28168.32, 23019.35, 18603.85, 28328.87, 0.000, 0.000, 0.000, 14:15:23.354, 1560597323354
36, 28199.70, 27087.36, 28442.10, 20728.07, 28141.96, 22966.21, 18528.79, 28271.56, 0.004, 0.048, -1.002, 14:15:23.355, 1560597323355
37, 28145.38, 27079.23, 28430.48, 20706.01, 28129.54, 22953.38, 18502.17, 28256.49, 0.000, 0.000, 0.000, 14:15:23.355, 1560597323355
38, 28232.44, 27151.74, 28522.03, 20804.13, 28160.11, 23016.66, 18579.35, 28314.29, 0.000, 0.000, 0.000, 14:15:23.355, 1560597323355
39, 28305.20, 27196.06, 28570.20, 20853.69, 28178.37, 23044.85, 18630.20, 28344.45, 0.000, 0.000, 0.000, 14:15:23.355, 1560597323355
40, 28270.02, 27157.48, 28520.06, 20803.53, 28166.46, 23012.26, 18593.37, 28315.79, 0.000, 0.000, 0.000, 14:15:23.355, 1560597323355
41, 28209.58, 27095.77, 28455.92, 20732.09, 28150.81, 22971.67, 18527.09, 28269.66, 0.000, 0.000, 0.000, 14:15:23.355, 1560597323355
42, 28205.58, 27083.52, 28430.19, 20723.78, 28142.61, 22968.16, 18504.09, 28258.50, 0.000, 0.000, 0.000, 14:15:23.355, 1560597323355
43, 28300.24, 27167.81, 28508.38, 20819.04, 28159.75, 23023.46, 18576.06, 28308.46, 0.000, 0.000, 0.000, 14:15:23.355, 1560597323355
44, 28383.47, 27230.77, 28562.18, 20877.22, 28180.27, 23054.95, 18634.89, 28347.13, 0.000, 0.000, 0.000, 14:15:23.355, 1560597323355
45, 28287.79, 27167.63, 28536.29, 20824.85, 28174.69, 23027.68, 18603.09, 28335.06, 0.000, 0.000, 0.000, 14:15:23.355, 1560597323355
46, 28176.88, 27093.60, 28462.55, 20741.93, 28153.72, 22981.75, 18534.80, 28286.71, 0.000, 0.054, -1.018, 14:15:23.356, 1560597323356
47, 28151.04, 27084.37, 28445.92, 20728.25, 28141.63, 22971.02, 18505.68, 28269.08, 0.000, 0.000, 0.000, 14:15:23.356, 1560597323356
48, 28263.80, 27164.95, 28526.64, 20819.29, 28159.91, 23024.67, 18575.13, 28310.94, 0.000, 0.000, 0.000, 14:15:23.356, 1560597323356
49, 28345.12, 27200.26, 28555.80, 20867.70, 28174.19, 23052.87, 18633.80, 28347.24, 0.000, 0.000, 0.000, 14:15:23.356, 1560597323356
50, 28301.82, 27165.95, 28521.90, 20822.86, 28168.85, 23029.52, 18609.84, 28335.33, 0.000, 0.000, 0.000, 14:15:23.356, 1560597323356
51, 28204.71, 27106.88, 28472.08, 20754.24, 28152.78, 22991.96, 18549.18, 28299.05, 0.000, 0.000, 0.000, 14:15:23.356, 1560597323356
52, 28179.22, 27085.13, 28450.42, 20728.85, 28137.43, 22974.11, 18517.53, 28274.46, 0.000, 0.000, 0.000, 14:15:23.356, 1560597323356
53, 28260.29, 27149.77, 28523.80, 20817.32, 28158.35, 23024.91, 18584.20, 28320.87, 0.000, 0.000, 0.000, 14:15:23.357, 1560597323357
54, 28338.81, 27194.54, 28572.99, 20870.45, 28175.11, 23049.88, 18635.63, 28355.67, 0.000, 0.000, 0.000, 14:15:23.357, 1560597323357
55, 28302.63, 27159.40, 28529.56, 20814.05, 28163.00, 23015.01, 18602.42, 28324.60, 0.000, 0.000, 0.000, 14:15:23.357, 1560597323357
56, 28212.48, 27107.21, 28465.15, 20745.70, 28146.16, 22974.11, 18536.93, 28281.93, 0.000, 0.056, -1.030, 14:15:23.357, 1560597323357
57, 28166.57, 27085.24, 28447.47, 20728.49, 28136.55, 22966.84, 18511.58, 28264.88, 0.000, 0.000, 0.000, 14:15:23.357, 1560597323357
58, 28262.01, 27151.98, 28510.14, 20817.10, 28156.02, 23024.33, 18578.23, 28320.20, 0.000, 0.000, 0.000, 14:15:23.357, 1560597323357
59, 28337.72, 27205.36, 28566.60, 20874.61, 28179.49, 23060.16, 18639.32, 28359.85, 0.000, 0.000, 0.000, 14:15:23.357, 1560597323357
60, 28293.37, 27178.51, 28537.61, 20830.42, 28170.80, 23029.00, 18608.72, 28331.04, 0.000, 0.000, 0.000, 14:15:23.358, 1560597323358
61, 28238.84, 27137.36, 28467.36, 20758.33, 28146.70, 22981.26, 18540.32, 28278.82, 0.000, 0.000, 0.000, 14:15:23.358, 1560597323358
62, 28217.27, 27121.72, 28443.15, 20727.20, 28131.73, 22963.67, 18512.70, 28263.40, 0.000, 0.000, 0.000, 14:15:23.358, 1560597323358
63, 28263.40, 27167.11, 28502.61, 20799.66, 28148.29, 23009.91, 18578.88, 28317.85, 0.000, 0.000, 0.000, 14:15:23.358, 1560597323358
64, 28284.99, 27155.18, 28534.26, 20839.78, 28154.97, 23025.16, 18628.05, 28345.32, 0.000, 0.000, 0.000, 14:15:23.358, 1560597323358
65, 28255.71, 27098.27, 28509.43, 20790.38, 28152.85, 22998.02, 18603.85, 28323.55, 0.000, 0.000, 0.000, 14:15:23.359, 1560597323359
66, 28179.60, 27040.83, 28454.13, 20717.54, 28136.17, 22960.40, 18545.31, 28282.40, 0.004, 0.054, -1.032, 14:15:23.359, 1560597323359
67, 28155.08, 27031.62, 28426.54, 20701.58, 28124.01, 22952.58, 18521.10, 28266.37, 0.000, 0.000, 0.000, 14:15:23.359, 1560597323359
68, 28245.76, 27102.49, 28491.23, 20789.27, 28141.29, 23003.72, 18581.68, 28309.33, 0.000, 0.000, 0.000, 14:15:23.359, 1560597323359
69, 28317.40, 27151.45, 28536.83, 20847.99, 28158.01, 23035.84, 18635.48, 28349.70, 0.000, 0.000, 0.000, 14:15:23.359, 1560597323359
70, 28272.56, 27120.58, 28500.11, 20797.83, 28151.13, 23005.96, 18608.32, 28325.56, 0.000, 0.000, 0.000, 14:15:23.359, 1560597323359
71, 28178.11, 27065.39, 28450.33, 20724.38, 28136.62, 22960.92, 18544.93, 28282.27, 0.000, 0.000, 0.000, 14:15:23.359, 1560597323359
72, 28123.21, 27061.86, 28449.99, 20706.21, 28135.48, 22955.55, 18521.08, 28268.38, 0.000, 0.000, 0.000, 14:15:23.360, 1560597323360
73, 28214.00, 27121.96, 28511.62, 20790.32, 28147.01, 23001.33, 18574.05, 28302.36, 0.000, 0.000, 0.000, 14:15:23.360, 1560597323360
74, 28291.56, 27150.04, 28541.34, 20830.10, 28151.62, 23019.10, 18615.38, 28322.10, 0.000, 0.000, 0.000, 14:15:23.360, 1560597323360
75, 28269.70, 27128.04, 28502.07, 20791.57, 28149.85, 22997.24, 18591.31, 28305.20, 0.000, 0.000, 0.000, 14:15:23.360, 1560597323360
76, 28177.81, 27080.54, 28461.62, 20731.98, 28141.43, 22967.51, 18535.45, 28277.48, 0.000, 0.050, -1.032, 14:15:23.360, 1560597323360
77, 28172.79, 27079.29, 28436.22, 20711.26, 28132.08, 22960.72, 18510.80, 28266.30, 0.000, 0.000, 0.000, 14:15:23.361, 1560597323361
78, 28264.81, 27147.33, 28494.92, 20796.13, 28139.86, 23005.29, 18570.77, 28308.26, 0.000, 0.000, 0.000, 14:15:23.361, 1560597323361
79, 28332.78, 27168.72, 28546.26, 20858.76, 28164.09, 23038.48, 18625.93, 28342.01, 0.000, 0.000, 0.000, 14:15:23.362, 1560597323362
80, 28263.18, 27134.82, 28530.46, 20815.89, 28162.68, 23015.54, 18594.46, 28309.60, 0.000, 0.000, 0.000, 14:15:23.362, 1560597323362
81, 28176.74, 27081.28, 28465.41, 20736.14, 28142.34, 22970.17, 18532.46, 28274.13, 0.000, 0.000, 0.000, 14:15:23.362, 1560597323362
82, 28151.73, 27058.39, 28446.57, 20716.78, 28136.62, 22960.27, 18512.34, 28265.34, 0.000, 0.000, 0.000, 14:15:23.363, 1560597323363
83, 28223.59, 27122.97, 28515.24, 20806.79, 28151.73, 23011.72, 18575.21, 28311.05, 0.000, 0.000, 0.000, 14:15:23.363, 1560597323363
84, 28297.46, 27174.33, 28562.53, 20863.21, 28167.51, 23045.79, 18627.76, 28339.75, 0.000, 0.000, 0.000, 14:15:23.363, 1560597323363
85, 28272.88, 27142.24, 28529.74, 20815.22, 28162.75, 23018.43, 18596.18, 28306.65, 0.000, 0.000, 0.000, 14:15:23.363, 1560597323363
86, 28200.61, 27079.27, 28461.30, 20733.72, 28137.36, 22965.79, 18515.18, 28243.89, 0.002, 0.054, -1.036, 14:15:23.363, 1560597323363
87, 28186.51, 27070.44, 28445.81, 20718.64, 28136.22, 22964.72, 18489.27, 28236.89, 0.000, 0.000, 0.000, 14:15:23.363, 1560597323363
88, 28267.80, 27140.20, 28515.42, 20811.37, 28160.02, 23020.60, 18560.82, 28292.52, 0.000, 0.000, 0.000, 14:15:23.364, 1560597323364
89, 28338.30, 27183.86, 28575.70, 20867.21, 28172.00, 23046.26, 18614.13, 28323.32, 0.000, 0.000, 0.000, 14:15:23.364, 1560597323364
90, 28288.88, 27157.46, 28524.51, 20814.75, 28160.16, 23016.44, 18579.82, 28295.74, 0.000, 0.000, 0.000, 14:15:23.364, 1560597323364
91, 28204.53, 27107.12, 28459.31, 20743.51, 28143.55, 22974.40, 18513.46, 28259.94, 0.000, 0.000, 0.000, 14:15:23.364, 1560597323364
92, 28143.66, 27073.42, 28443.51, 20717.79, 28128.66, 22959.15, 18478.52, 28237.27, 0.000, 0.000, 0.000, 14:15:23.364, 1560597323364
93, 28219.97, 27134.64, 28518.12, 20802.01, 28149.58, 23011.37, 18548.97, 28286.20, 0.000, 0.000, 0.000, 14:15:23.364, 1560597323364
94, 28306.11, 27206.79, 28579.12, 20868.95, 28178.24, 23052.89, 18621.15, 28337.23, 0.000, 0.000, 0.000, 14:15:23.365, 1560597323365
95, 28273.57, 27173.86, 28540.74, 20823.71, 28169.52, 23026.41, 18589.97, 28311.46, 0.000, 0.000, 0.000, 14:15:23.365, 1560597323365
96, 28204.50, 27099.05, 28475.21, 20747.20, 28147.86, 22980.23, 18523.09, 28265.39, 0.002, 0.056, -1.036, 14:15:23.365, 1560597323365
97, 28170.24, 27053.25, 28442.95, 20715.82, 28134.38, 22961.28, 18490.57, 28246.59, 0.000, 0.000, 0.000, 14:15:23.365, 1560597323365
98, 28242.32, 27115.04, 28519.53, 20800.51, 28153.50, 23010.05, 18554.76, 28294.63, 0.000, 0.000, 0.000, 14:15:23.365, 1560597323365
99, 28347.64, 27175.29, 28582.29, 20872.24, 28177.93, 23052.98, 18624.97, 28346.28, 0.000, 0.000, 0.000, 14:15:23.365, 1560597323365
100, 28299.74, 27145.14, 28526.93, 20825.07, 28161.43, 23016.69, 18587.46, 28307.37, 0.000, 0.000, 0.000, 14:15:23.366, 1560597323366
101, 28188.90, 27098.83, 28464.48, 20744.45, 28145.56, 22975.49, 18524.03, 28267.54, 0.000, 0.000, 0.000, 14:15:23.366, 1560597323366
102, 28146.10, 27090.80, 28454.87, 20721.25, 28143.77, 22969.63, 18502.51, 28258.66, 0.000, 0.000, 0.000, 14:15:23.366, 1560597323366
103, 28256.00, 27137.92, 28523.17, 20802.88, 28161.36, 23017.85, 18562.12, 28304.75, 0.000, 0.000, 0.000, 14:15:23.366, 1560597323366
104, 28346.64, 27176.50, 28569.37, 20861.55, 28171.96, 23042.03, 18608.59, 28318.25, 0.000, 0.000, 0.000, 14:15:23.367, 1560597323367
105, 28303.03, 27154.02, 28545.10, 20827.13, 28175.36, 23025.34, 18598.10, 28328.64, 0.000, 0.000, 0.000, 14:15:23.367, 1560597323367
106, 28212.73, 27102.61, 28480.53, 20757.97, 28162.21, 22988.01, 18545.06, 28297.29, 0.008, 0.052, -1.040, 14:15:23.367, 1560597323367
107, 28148.71, 27081.10, 28454.28, 20734.60, 28150.93, 22971.04, 18511.24, 28271.78, 0.000, 0.000, 0.000, 14:15:23.367, 1560597323367
108, 28230.99, 27150.42, 28534.33, 20817.47, 28169.70, 23019.86, 18574.14, 28321.47, 0.000, 0.000, 0.000, 14:15:23.367, 1560597323367
109, 28307.50, 27204.11, 28588.24, 20876.08, 28185.75, 23050.82, 18629.13, 28353.92, 0.000, 0.000, 0.000, 14:15:23.367, 1560597323367
110, 28284.39, 27160.61, 28547.63, 20825.43, 28175.54, 23023.59, 18600.56, 28330.59, 0.000, 0.000, 0.000, 14:15:23.368, 1560597323368
111, 28206.40, 27095.59, 28476.05, 20748.86, 28154.79, 22982.85, 18534.58, 28292.23, 0.000, 0.000, 0.000, 14:15:23.368, 1560597323368
112, 28154.84, 27052.52, 28442.17, 20727.26, 28137.43, 22964.70, 18498.35, 28268.88, 0.000, 0.000, 0.000, 14:15:23.368, 1560597323368
113, 28250.44, 27115.86, 28513.98, 20806.63, 28155.78, 23015.68, 18556.42, 28312.39, 0.000, 0.000, 0.000, 14:15:23.368, 1560597323368
114, 28336.33, 27186.61, 28584.35, 20872.79, 28182.67, 23060.63, 18623.85, 28357.41, 0.000, 0.000, 0.000, 14:15:23.368, 1560597323368
115, 28296.41, 27162.98, 28547.89, 20830.80, 28176.34, 23033.49, 18601.43, 28337.94, 0.000, 0.000, 0.000, 14:15:23.368, 1560597323368
116, 28205.89, 27104.82, 28485.38, 20757.93, 28161.12, 22992.10, 18540.73, 28295.65, 0.004, 0.048, -1.034, 14:15:23.368, 1560597323368
117, 28169.43, 27090.56, 28468.07, 20731.06, 28148.58, 22975.80, 18504.70, 28272.45, 0.000, 0.000, 0.000, 14:15:23.368, 1560597323368
118, 28228.49, 27146.71, 28512.13, 20807.89, 28154.73, 23014.38, 18550.76, 28298.89, 0.000, 0.000, 0.000, 14:15:23.369, 1560597323369
119, 28315.64, 27197.85, 28563.14, 20876.37, 28172.94, 23050.39, 18609.64, 28338.90, 0.000, 0.000, 0.000, 14:15:23.369, 1560597323369
120, 28292.70, 27169.06, 28555.29, 20835.83, 28175.63, 23029.05, 18590.91, 28321.31, 0.000, 0.000, 0.000, 14:15:23.820, 1560597323820
121, 28205.20, 27100.01, 28499.93, 20756.81, 28164.29, 22986.29, 18535.50, 28279.72, 0.000, 0.000, 0.000, 14:15:23.820, 1560597323820
122, 28155.06, 27070.85, 28473.95, 20728.94, 28152.67, 22970.64, 18503.96, 28262.53, 0.000, 0.000, 0.000, 14:15:23.820, 1560597323820
123, 28256.45, 27143.00, 28536.05, 20816.00, 28172.23, 23021.40, 18564.15, 28312.53, 0.000, 0.000, 0.000, 14:15:23.820, 1560597323820
124, 28379.16, 27206.81, 28583.92, 20880.39, 28188.70, 23056.14, 18626.31, 28349.50, 0.000, 0.000, 0.000, 14:15:23.820, 1560597323820
125, 28326.95, 27183.19, 28559.22, 20836.77, 28181.23, 23028.26, 18600.81, 28322.56, 0.004, 0.048, -1.036, 14:15:23.821, 1560597323821
126, 28234.66, 27113.04, 28492.24, 20760.17, 28166.39, 22990.22, 18543.59, 28285.86, 0.000, 0.000, 0.000, 14:15:23.821, 1560597323821
127, 28159.93, 27094.20, 28462.35, 20731.38, 28154.01, 22975.29, 18507.09, 28265.88, 0.000, 0.000, 0.000, 14:15:23.821, 1560597323821
128, 28221.56, 27142.93, 28532.72, 20809.21, 28169.75, 23021.71, 18558.16, 28300.77, 0.000, 0.000, 0.000, 14:15:23.821, 1560597323821
129, 28320.84, 27194.56, 28595.39, 20876.80, 28192.88, 23060.47, 18621.64, 28334.61, 0.000, 0.000, 0.000, 14:15:23.821, 1560597323821
130, 28304.68, 27170.58, 28564.34, 20840.34, 28189.55, 23036.73, 18605.21, 28330.88, 0.000, 0.000, 0.000, 14:15:23.821, 1560597323821
131, 28237.49, 27112.53, 28505.94, 20763.12, 28167.62, 22991.38, 18544.08, 28289.44, 0.000, 0.000, 0.000, 14:15:23.821, 1560597323821
132, 28187.94, 27090.49, 28488.01, 20734.51, 28159.24, 22978.11, 18511.74, 28267.04, 0.000, 0.000, 0.000, 14:15:23.821, 1560597323821
133, 28266.82, 27157.05, 28542.15, 20822.37, 28178.08, 23031.33, 18570.52, 28303.74, 0.000, 0.000, 0.000, 14:15:23.821, 1560597323821
134, 28360.03, 27209.67, 28586.18, 20890.19, 28196.37, 23069.14, 18632.82, 28347.69, 0.000, 0.000, 0.000, 14:15:23.821, 1560597323821
135, 28334.01, 27182.71, 28564.52, 20848.90, 28189.88, 23040.94, 18615.38, 28330.10, 0.002, 0.046, -1.038, 14:15:23.821, 1560597323821
136, 28255.93, 27122.12, 28503.93, 20773.29, 28170.95, 22993.42, 18553.76, 28286.15, 0.000, 0.000, 0.000, 14:15:23.821, 1560597323821
137, 28187.74, 27089.96, 28476.05, 20732.81, 28159.80, 22974.78, 18518.64, 28265.61, 0.000, 0.000, 0.000, 14:15:23.821, 1560597323821
138, 28226.94, 27155.49, 28531.98, 20812.78, 28172.05, 23017.85, 18567.53, 28299.23, 0.000, 0.000, 0.000, 14:15:23.822, 1560597323822
139, 28307.14, 27209.87, 28587.39, 20882.74, 28190.53, 23053.43, 18630.36, 28340.80, 0.000, 0.000, 0.000, 14:15:23.822, 1560597323822
140, 28290.31, 27173.33, 28560.61, 20841.84, 28179.76, 23030.03, 18605.88, 28324.55, 0.000, 0.000, 0.000, 14:15:23.822, 1560597323822
141, 28212.17, 27124.15, 28508.89, 20765.55, 28160.45, 22989.17, 18537.73, 28278.02, 0.000, 0.000, 0.000, 14:15:23.822, 1560597323822
142, 28154.84, 27096.73, 28463.02, 20725.95, 28139.44, 22959.96, 18484.78, 28235.79, 0.000, 0.000, 0.000, 14:15:23.822, 1560597323822
143, 28242.84, 27143.98, 28522.79, 20807.64, 28161.16, 23010.99, 18545.06, 28281.44, 0.000, 0.000, 0.000, 14:15:23.822, 1560597323822
144, 28333.38, 27185.96, 28588.01, 20882.25, 28185.08, 23053.79, 18615.74, 28328.11, 0.000, 0.000, 0.000, 14:15:23.822, 1560597323822
145, 28336.31, 27160.59, 28555.98, 20840.16, 28182.22, 23034.95, 18595.76, 28310.36, 0.000, 0.054, -1.038, 14:15:23.822, 1560597323822
146, 28240.36, 27105.36, 28500.02, 20764.35, 28165.07, 22990.80, 18532.12, 28265.10, 0.000, 0.000, 0.000, 14:15:23.822, 1560597323822
147, 28164.38, 27081.78, 28478.22, 20736.88, 28150.48, 22967.15, 18487.33, 28225.80, 0.000, 0.000, 0.000, 14:15:23.822, 1560597323822
148, 28225.98, 27144.20, 28535.00, 20813.77, 28167.27, 23020.55, 18545.78, 28279.56, 0.000, 0.000, 0.000, 14:15:23.822, 1560597323822
149, 28314.56, 27199.70, 28596.46, 20877.74, 28184.39, 23057.16, 18611.54, 28324.55, 0.000, 0.000, 0.000, 14:15:23.822, 1560597323822
150, 28310.79, 27176.55, 28571.12, 20839.96, 28178.98, 23030.92, 18588.29, 28302.63, 0.000, 0.000, 0.000, 14:15:23.822, 1560597323822
151, 28223.30, 27128.74, 28512.06, 20778.31, 28170.69, 22995.38, 18536.08, 28275.18, 0.000, 0.000, 0.000, 14:15:23.822, 1560597323822
152, 28170.82, 27101.47, 28483.12, 20742.15, 28160.11, 22979.87, 18501.61, 28259.67, 0.000, 0.000, 0.000, 14:15:23.823, 1560597323823
153, 28253.63, 27145.79, 28535.91, 20812.87, 28169.88, 23017.98, 18547.48, 28290.18, 0.000, 0.000, 0.000, 14:15:23.823, 1560597323823
154, 28342.03, 27195.88, 28587.05, 20876.60, 28187.49, 23053.32, 18609.68, 28329.25, 0.000, 0.000, 0.000, 14:15:23.823, 1560597323823
155, 28313.91, 27184.39, 28563.92, 20841.12, 28184.10, 23036.78, 18600.99, 28327.91, 0.000, 0.056, -1.034, 14:15:23.823, 1560597323823
156, 28240.06, 27144.25, 28506.77, 20768.48, 28167.89, 22994.96, 18542.58, 28290.00, 0.000, 0.000, 0.000, 14:15:23.823, 1560597323823
157, 28181.44, 27102.63, 28487.21, 20733.30, 28154.66, 22978.35, 18505.93, 28269.66, 0.000, 0.000, 0.000, 14:15:23.823, 1560597323823
158, 28245.52, 27150.35, 28544.85, 20803.37, 28166.68, 23022.18, 18560.22, 28309.24, 0.000, 0.000, 0.000, 14:15:23.823, 1560597323823
159, 28345.83, 27197.33, 28602.50, 20885.38, 28193.39, 23064.45, 18629.46, 28357.66, 0.000, 0.000, 0.000, 14:15:23.823, 1560597323823
160, 28314.88, 27166.53, 28562.24, 20845.97, 28186.53, 23035.82, 18601.41, 28328.89, 0.000, 0.000, 0.000, 14:15:23.823, 1560597323823
161, 28202.65, 27107.48, 28502.52, 20764.14, 28164.85, 22985.59, 18533.13, 28274.96, 0.000, 0.000, 0.000, 14:15:23.823, 1560597323823
162, 28155.57, 27081.66, 28479.68, 20734.06, 28152.60, 22968.85, 18500.00, 28262.66, 0.000, 0.000, 0.000, 14:15:23.823, 1560597323823
163, 28227.44, 27132.96, 28524.31, 20813.34, 28166.91, 23015.30, 18551.63, 28304.77, 0.000, 0.000, 0.000, 14:15:23.823, 1560597323823
164, 28334.95, 27201.27, 28591.21, 20886.54, 28188.46, 23058.26, 18621.89, 28348.47, 0.000, 0.000, 0.000, 14:15:23.823, 1560597323823
165, 28305.55, 27186.49, 28563.83, 20849.46, 28186.85, 23034.34, 18602.89, 28329.05, 0.002, 0.054, -1.036, 14:15:23.824, 1560597323824
166, 28224.87, 27123.51, 28506.77, 20773.13, 28168.49, 22987.72, 18535.88, 28275.20, 0.000, 0.000, 0.000, 14:15:23.824, 1560597323824
167, 28210.16, 27090.16, 28484.97, 20735.98, 28157.88, 22970.33, 18498.28, 28259.04, 0.000, 0.000, 0.000, 14:15:23.824, 1560597323824
168, 28265.79, 27146.80, 28549.59, 20813.01, 28173.23, 23020.08, 18552.35, 28306.61, 0.000, 0.000, 0.000, 14:15:23.824, 1560597323824
169, 28351.89, 27210.70, 28608.51, 20885.34, 28191.36, 23060.76, 18623.99, 28356.74, 0.000, 0.000, 0.000, 14:15:23.824, 1560597323824
170, 28327.86, 27188.35, 28578.36, 20853.35, 28184.12, 23034.99, 18605.48, 28333.99, 0.000, 0.000, 0.000, 14:15:23.824, 1560597323824
171, 28234.72, 27122.84, 28513.78, 20776.19, 28164.76, 22988.75, 18538.29, 28284.43, 0.000, 0.000, 0.000, 14:15:23.824, 1560597323824
172, 28162.10, 27082.49, 28485.06, 20730.04, 28150.41, 22968.52, 18496.92, 28254.88, 0.000, 0.000, 0.000, 14:15:23.824, 1560597323824
173, 28220.89, 27134.30, 28527.13, 20800.13, 28161.14, 23012.53, 18545.06, 28298.38, 0.000, 0.000, 0.000, 14:15:23.824, 1560597323824
174, 28327.53, 27189.42, 28576.84, 20876.60, 28183.18, 23054.91, 18612.81, 28345.65, 0.000, 0.000, 0.000, 14:15:23.824, 1560597323824
175, 28311.54, 27158.53, 28558.40, 20842.35, 28179.60, 23034.90, 18598.69, 28332.69, 0.006, 0.056, -1.032, 14:15:23.824, 1560597323824
176, 28211.16, 27106.05, 28505.45, 20769.04, 28162.88, 22994.13, 18536.99, 28287.47, 0.000, 0.000, 0.000, 14:15:23.824, 1560597323824
177, 28180.54, 27078.31, 28473.53, 20732.20, 28150.63, 22974.15, 18495.64, 28263.18, 0.000, 0.000, 0.000, 14:15:23.824, 1560597323824
178, 28251.33, 27131.64, 28540.25, 20805.45, 28167.00, 23016.80, 18545.64, 28299.01, 0.000, 0.000, 0.000, 14:15:23.825, 1560597323825
179, 28346.30, 27196.89, 28596.35, 20877.67, 28187.56, 23056.14, 18614.24, 28339.11, 0.000, 0.000, 0.000, 14:15:23.825, 1560597323825
180, 28326.92, 27172.68, 28573.17, 20846.22, 28185.41, 23033.96, 18597.34, 28323.53, 0.000, 0.000, 0.000, 14:15:23.825, 1560597323825
181, 28207.92, 27119.01, 28528.27, 20775.30, 28169.32, 22992.75, 18534.65, 28278.44, 0.000, 0.000, 0.000, 14:15:23.825, 1560597323825
182, 28152.98, 27083.14, 28483.07, 20733.79, 28152.15, 22965.50, 18493.07, 28253.12, 0.000, 0.000, 0.000, 14:15:23.825, 1560597323825
183, 28232.62, 27141.97, 28528.89, 20812.22, 28167.87, 23011.75, 18543.41, 28295.32, 0.000, 0.000, 0.000, 14:15:23.825, 1560597323825
184, 28351.91, 27222.52, 28603.88, 20891.13, 28196.81, 23065.79, 18619.03, 28350.30, 0.000, 0.000, 0.000, 14:15:23.825, 1560597323825
185, 28321.40, 27177.69, 28579.81, 20854.49, 28190.94, 23043.04, 18605.05, 28332.96, 0.004, 0.048, -1.038, 14:15:23.825, 1560597323825
186, 28249.47, 27117.02, 28520.58, 20776.42, 28170.64, 22996.79, 18543.25, 28292.66, 0.000, 0.000, 0.000, 14:15:23.825, 1560597323825
187, 28187.96, 27086.36, 28485.89, 20734.06, 28159.98, 22974.31, 18506.84, 28269.90, 0.000, 0.000, 0.000, 14:15:23.825, 1560597323825
188, 28237.61, 27138.79, 28524.16, 20798.88, 28166.44, 23010.74, 18548.44, 28300.79, 0.000, 0.000, 0.000, 14:15:23.825, 1560597323825
189, 28338.86, 27204.22, 28595.79, 20882.09, 28191.94, 23057.41, 18621.26, 28352.94, 0.000, 0.000, 0.000, 14:15:23.825, 1560597323825
190, 28290.65, 27179.18, 28577.08, 20854.24, 28189.01, 23035.06, 18605.81, 28336.67, 0.000, 0.000, 0.000, 14:15:23.825, 1560597323825
191, 28193.39, 27117.11, 28515.97, 20775.41, 28167.29, 22987.16, 18540.59, 28285.44, 0.000, 0.000, 0.000, 14:15:23.826, 1560597323826
192, 28160.69, 27088.30, 28483.30, 20741.81, 28161.77, 22977.37, 18512.45, 28271.74, 0.000, 0.000, 0.000, 14:15:23.826, 1560597323826
193, 28251.26, 27143.42, 28538.73, 20813.72, 28173.95, 23021.60, 18560.51, 28313.31, 0.000, 0.000, 0.000, 14:15:23.826, 1560597323826
194, 28336.49, 27202.14, 28593.33, 20886.54, 28189.04, 23054.28, 18624.66, 28354.51, 0.000, 0.000, 0.000, 14:15:23.826, 1560597323826
195, 28297.42, 27182.60, 28577.44, 20857.33, 28191.05, 23039.39, 18611.92, 28341.27, 0.002, 0.050, -1.034, 14:15:23.826, 1560597323826
196, 28233.20, 27127.37, 28532.87, 20789.27, 28182.87, 23010.94, 18556.71, 28310.47, 0.000, 0.000, 0.000, 14:15:23.826, 1560597323826
197, 28176.23, 27093.06, 28503.97, 20749.91, 28170.89, 22992.52, 18513.03, 28280.32, 0.000, 0.000, 0.000, 14:15:23.826, 1560597323826
198, 28257.19, 27146.37, 28546.89, 20810.55, 28178.35, 23028.24, 18550.81, 28306.43, 0.000, 0.000, 0.000, 14:15:23.826, 1560597323826
199, 28350.08, 27221.92, 28605.09, 20880.98, 28197.82, 23071.43, 18623.38, 28354.39, 0.000, 0.000, 0.000, 14:15:23.826, 1560597323826
200, 28320.96, 27189.20, 28587.97, 20859.45, 28193.80, 23049.68, 18610.04, 28340.29, 0.000, 0.000, 0.000, 14:15:23.826, 1560597323826
201, 28228.98, 27128.13, 28519.51, 20788.89, 28169.84, 23001.15, 18545.53, 28295.21, 0.000, 0.000, 0.000, 14:15:23.826, 1560597323826
202, 28168.03, 27107.19, 28488.15, 20746.73, 28160.00, 22979.96, 18502.95, 28269.68, 0.000, 0.000, 0.000, 14:15:23.826, 1560597323826
203, 28215.48, 27144.09, 28534.19, 20803.42, 28167.42, 23015.05, 18538.56, 28293.24, 0.000, 0.000, 0.000, 14:15:23.826, 1560597323826
204, 28310.94, 27182.04, 28593.96, 20878.23, 28185.39, 23056.85, 18608.97, 28341.36, 0.000, 0.000, 0.000, 14:15:23.826, 1560597323826
205, 28328.85, 27182.11, 28572.68, 20862.34, 28190.20, 23040.47, 18606.08, 28337.45, 0.004, 0.052, -1.030, 14:15:23.827, 1560597323827
206, 28233.02, 27123.30, 28516.51, 20778.92, 28167.55, 22992.88, 18542.34, 28286.29, 0.000, 0.000, 0.000, 14:15:23.827, 1560597323827
207, 28156.74, 27077.75, 28476.48, 20729.28, 28154.32, 22972.56, 18498.39, 28258.15, 0.000, 0.000, 0.000, 14:15:23.827, 1560597323827
208, 28212.39, 27117.54, 28532.69, 20793.80, 28169.14, 23015.37, 18542.65, 28294.20, 0.000, 0.000, 0.000, 14:15:23.827, 1560597323827
209, 28311.54, 27182.51, 28600.38, 20875.05, 28193.19, 23060.67, 18615.90, 28341.99, 0.000, 0.000, 0.000, 14:15:23.827, 1560597323827
210, 28306.81, 27171.07, 28581.64, 20848.63, 28188.39, 23038.03, 18598.62, 28319.19, 0.000, 0.000, 0.000, 14:15:23.827, 1560597323827
211, 28201.60, 27120.40, 28521.38, 20778.05, 28173.34, 22997.17, 18540.79, 28282.47, 0.000, 0.000, 0.000, 14:15:23.827, 1560597323827
212, 28138.70, 27086.31, 28478.67, 20739.31, 28163.33, 22976.83, 18500.90, 28262.37, 0.000, 0.000, 0.000, 14:15:23.827, 1560597323827
213, 28228.71, 27140.96, 28530.62, 20798.48, 28172.85, 23014.43, 18540.21, 28294.89, 0.000, 0.000, 0.000, 14:15:23.827, 1560597323827
214, 28336.29, 27218.50, 28606.59, 20884.02, 28190.73, 23058.89, 18605.68, 28338.10, 0.000, 0.000, 0.000, 14:15:23.827, 1560597323827
215, 28318.74, 27199.05, 28598.32, 20861.42, 28191.88, 23044.54, 18598.08, 28328.06, 0.002, 0.054, -1.036, 14:15:23.827, 1560597323827
216, 28264.07, 27133.09, 28527.33, 20791.21, 28173.05, 23000.84, 18537.60, 28289.28, 0.000, 0.000, 0.000, 14:15:23.828, 1560597323828
217, 28192.37, 27084.88, 28478.98, 20743.74, 28155.73, 22974.08, 18491.80, 28256.02, 0.000, 0.000, 0.000, 14:15:23.828, 1560597323828
218, 28230.97, 27130.61, 28543.24, 20810.01, 28172.54, 23014.34, 18536.77, 28295.18, 0.000, 0.000, 0.000, 14:15:23.828, 1560597323828
219, 28328.18, 27201.80, 28607.79, 20886.56, 28192.23, 23059.76, 18612.95, 28345.25, 0.000, 0.000, 0.000, 14:15:23.828, 1560597323828
220, 28299.32, 27183.21, 28575.21, 20850.58, 28180.10, 23037.96, 18599.24, 28326.59, 0.000, 0.000, 0.000, 14:15:23.828, 1560597323828
221, 28233.36, 27129.67, 28515.73, 20784.51, 28163.22, 22997.62, 18542.29, 28285.88, 0.000, 0.000, 0.000, 14:15:23.829, 1560597323829
222, 28191.34, 27089.53, 28474.15, 20740.50, 28145.96, 22969.34, 18495.24, 28256.38, 0.000, 0.000, 0.000, 14:15:23.829, 1560597323829
223, 28232.96, 27141.25, 28541.75, 20809.83, 28163.40, 23014.99, 18540.91, 28294.09, 0.000, 0.000, 0.000, 14:15:23.829, 1560597323829
224, 28330.23, 27219.60, 28610.30, 20896.85, 28191.61, 23068.59, 18618.91, 28345.81, 0.000, 0.000, 0.000, 14:15:23.829, 1560597323829
225, 28315.28, 27202.14, 28590.09, 20869.13, 28188.21, 23050.57, 18613.30, 28339.73, -0.002, 0.052, -1.032, 14:15:23.829, 1560597323829
226, 28234.63, 27137.41, 28523.53, 20797.96, 28172.12, 23004.37, 18550.29, 28292.66, 0.000, 0.000, 0.000, 14:15:23.829, 1560597323829
227, 28186.46, 27113.56, 28483.30, 20751.56, 28159.33, 22979.67, 18502.86, 28264.65, 0.000, 0.000, 0.000, 14:15:23.829, 1560597323829
228, 28228.31, 27164.61, 28539.22, 20821.12, 28175.58, 23026.30, 18545.71, 28300.77, 0.000, 0.000, 0.000, 14:15:23.829, 1560597323829
229, 28316.22, 27223.73, 28618.21, 20896.73, 28199.83, 23072.97, 18619.88, 28349.48, 0.000, 0.000, 0.000, 14:15:23.830, 1560597323830
230, 28321.25, 27189.00, 28599.01, 20867.99, 28197.71, 23051.40, 18609.57, 28332.42, 0.000, 0.000, 0.000, 14:15:23.830, 1560597323830
231, 28230.23, 27126.95, 28539.82, 20794.97, 28182.06, 23009.64, 18549.22, 28290.51, 0.000, 0.000, 0.000, 14:15:23.830, 1560597323830
232, 28172.09, 27098.47, 28502.00, 20746.17, 28164.74, 22982.67, 18497.99, 28261.08, 0.000, 0.000, 0.000, 14:15:23.830, 1560597323830
233, 28243.71, 27141.23, 28540.45, 20808.82, 28172.52, 23021.20, 18541.51, 28302.89, 0.000, 0.000, 0.000, 14:15:23.830, 1560597323830
234, 28369.15, 27202.41, 28598.36, 20882.85, 28184.70, 23058.82, 18607.58, 28342.90, 0.002, 0.052, -1.038, 14:15:23.830, 1560597323830
235, 28360.21, 27186.63, 28587.61, 20858.00, 28181.21, 23039.15, 18595.55, 28328.13, 0.000, 0.000, 0.000, 14:15:23.830, 1560597323830
236, 28225.27, 27135.08, 28526.17, 20791.12, 28165.50, 22996.90, 18533.75, 28284.72, 0.000, 0.000, 0.000, 14:15:23.830, 1560597323830
237, 28151.51, 27100.86, 28494.83, 20745.35, 28150.75, 22968.00, 18487.75, 28253.14, 0.000, 0.000, 0.000, 14:15:23.830, 1560597323830
238, 28198.67, 27139.29, 28535.04, 20801.07, 28161.39, 23004.53, 18527.79, 28285.97, 0.000, 0.000, 0.000, 14:15:23.830, 1560597323830
239, 28309.78, 27208.40, 28599.46, 20886.54, 28183.20, 23053.14, 18606.60, 28340.87, 0.000, 0.000, 0.000, 14:15:23.831, 1560597323831
240, 28325.34, 27198.18, 28577.55, 20865.22, 28178.80, 23038.81, 18603.42, 28334.37, 0.000, 0.000, 0.000, 14:15:24.302, 1560597324302
241, 28264.58, 27144.99, 28532.78, 20790.09, 28164.90, 22998.96, 18542.20, 28289.22, 0.000, 0.000, 0.000, 14:15:24.302, 1560597324302
242, 28181.50, 27103.81, 28490.58, 20749.71, 28155.02, 22974.82, 18493.45, 28250.93, 0.000, 0.000, 0.000, 14:15:24.302, 1560597324302
243, 28186.93, 27120.35, 28529.99, 20803.62, 28164.63, 23012.21, 18531.27, 28291.12, 0.000, 0.000, 0.000, 14:15:24.303, 1560597324303
244, 28284.99, 27182.96, 28600.13, 20883.30, 28186.69, 23063.63, 18608.21, 28350.71, 0.002, 0.054, -1.036, 14:15:24.303, 1560597324303
245, 28304.86, 27181.75, 28590.92, 20870.18, 28186.67, 23052.20, 18602.15, 28345.05, 0.000, 0.000, 0.000, 14:15:24.304, 1560597324304
246, 28255.22, 27132.18, 28525.34, 20798.88, 28170.55, 23008.62, 18539.86, 28299.97, 0.000, 0.000, 0.000, 14:15:24.304, 1560597324304
247, 28179.60, 27098.56, 28478.85, 20748.03, 28152.71, 22979.78, 18491.57, 28266.42, 0.000, 0.000, 0.000, 14:15:24.304, 1560597324304
248, 28234.74, 27145.81, 28508.06, 20804.47, 28159.53, 23012.26, 18524.92, 28290.96, 0.000, 0.000, 0.000, 14:15:24.304, 1560597324304
249, 28359.09, 27212.71, 28591.68, 20892.49, 28182.82, 23063.18, 18603.31, 28350.24, 0.000, 0.000, 0.000, 14:15:24.304, 1560597324304
250, 28310.27, 27206.14, 28598.36, 20878.85, 28183.85, 23054.15, 18602.42, 28350.42, 0.000, 0.000, 0.000, 14:15:24.305, 1560597324305
251, 28221.36, 27152.38, 28532.25, 20804.73, 28168.67, 23010.63, 18540.86, 28304.24, 0.000, 0.000, 0.000, 14:15:24.305, 1560597324305
252, 28157.97, 27112.62, 28488.06, 20752.32, 28153.43, 22980.68, 18495.42, 28270.66, 0.000, 0.000, 0.000, 14:15:24.305, 1560597324305
253, 28203.65, 27149.95, 28526.10, 20798.92, 28161.25, 23010.25, 18531.25, 28293.06, 0.000, 0.000, 0.000, 14:15:24.306, 1560597324306
254, 28309.33, 27206.34, 28600.75, 20882.61, 28183.09, 23052.76, 18606.78, 28339.15, 0.008, 0.050, -1.038, 14:15:24.307, 1560597324307
255, 28334.32, 27214.95, 28602.74, 20873.96, 28187.07, 23045.34, 18613.93, 28342.93, 0.000, 0.000, 0.000, 14:15:24.307, 1560597324307
0, 28255.60, 27169.44, 28542.71, 20801.58, 28168.67, 23005.22, 18557.74, 28304.64, 0.000, 0.000, 0.000, 14:15:24.307, 1560597324307
1, 28172.03, 27096.88, 28475.47, 20748.56, 28150.99, 22974.62, 18508.83, 28275.54, 0.000, 0.000, 0.000, 14:15:24.307, 1560597324307
2, 28216.97, 27130.79, 28519.51, 20800.11, 28159.26, 23009.24, 18541.53, 28303.21, 0.000, 0.000, 0.000, 14:15:24.307, 1560597324307
3, 28329.74, 27203.05, 28600.20, 20891.95, 28185.44, 23060.61, 18619.29, 28353.86, 0.000, 0.000, 0.000, 14:15:24.308, 1560597324308
4, 28309.56, 27203.39, 28595.26, 20880.60, 28189.19, 23048.96, 18616.39, 28348.89, 0.000, 0.000, 0.000, 14:15:24.308, 1560597324308
5, 28234.79, 27147.62, 28530.57, 20806.99, 28170.28, 23003.95, 18551.63, 28300.95, 0.000, 0.000, 0.000, 14:15:24.309, 1560597324309
6, 28200.35, 27104.98, 28488.33, 20763.29, 28157.99, 22975.63, 18505.08, 28274.38, 0.000, 0.000, 0.000, 14:15:24.309, 1560597324309
7, 28233.25, 27148.83, 28540.00, 20810.32, 28172.32, 23009.73, 18539.88, 28302.74, 0.000, 0.000, 0.000, 14:15:24.309, 1560597324309
8, 28305.09, 27216.56, 28622.44, 20891.30, 28191.94, 23057.25, 18611.58, 28349.23, 0.000, 0.054, -1.040, 14:15:24.309, 1560597324309
9, 28309.82, 27205.60, 28591.48, 20875.32, 28186.31, 23040.58, 18602.75, 28334.57, 0.000, 0.000, 0.000, 14:15:24.310, 1560597324310
10, 28243.13, 27150.69, 28522.84, 20793.45, 28164.05, 22993.48, 18538.29, 28290.13, 0.000, 0.000, 0.000, 14:15:24.323, 1560597324323
11, 28171.04, 27113.13, 28487.50, 20740.88, 28151.39, 22967.06, 18493.38, 28266.53, 0.000, 0.000, 0.000, 14:15:24.324, 1560597324324
12, 28231.21, 27146.48, 28532.89, 20798.37, 28161.43, 23001.11, 18529.13, 28291.74, 0.000, 0.000, 0.000, 14:15:24.324, 1560597324324
13, 28342.88, 27203.32, 28610.21, 20885.67, 28188.32, 23054.73, 18607.92, 28346.28, 0.000, 0.000, 0.000, 14:15:24.324, 1560597324324
14, 28301.96, 27197.22, 28603.15, 20872.44, 28188.19, 23042.14, 18606.11, 28335.71, 0.000, 0.000, 0.000, 14:15:24.324, 1560597324324
15, 28207.70, 27134.64, 28540.45, 20797.00, 28163.91, 22993.17, 18541.04, 28287.41, 0.000, 0.000, 0.000, 14:15:24.325, 1560597324325
16, 28183.16, 27094.96, 28488.66, 20748.36, 28151.33, 22966.82, 18496.54, 28263.91, 0.000, 0.000, 0.000, 14:15:24.325, 1560597324325
17, 28231.17, 27140.11, 28533.48, 20797.34, 28160.27, 22997.96, 18533.17, 28298.51, 0.000, 0.000, 0.000, 14:15:24.326, 1560597324326
18, 28315.30, 27213.11, 28602.72, 20888.11, 28184.65, 23048.25, 18609.97, 28351.11, 0.002, 0.050, -1.038, 14:15:24.326, 1560597324326
19, 28319.12, 27202.45, 28590.47, 20882.43, 28185.68, 23039.44, 18611.98, 28351.78, 0.000, 0.000, 0.000, 14:15:24.326, 1560597324326
20, 28256.96, 27147.36, 28531.46, 20804.64, 28168.00, 22994.92, 18547.34, 28302.07, 0.000, 0.000, 0.000, 14:15:24.326, 1560597324326
21, 28171.38, 27114.41, 28502.97, 20755.07, 28158.88, 22971.47, 18504.43, 28275.54, 0.000, 0.000, 0.000, 14:15:24.327, 1560597324327
22, 28213.11, 27154.64, 28533.77, 20803.97, 28162.95, 23004.12, 18536.23, 28299.65, 0.000, 0.000, 0.000, 14:15:24.327, 1560597324327
23, 28336.74, 27210.30, 28597.87, 20891.79, 28189.04, 23056.74, 18619.34, 28358.60, 0.000, 0.000, 0.000, 14:15:24.328, 1560597324328
24, 28345.07, 27207.91, 28608.18, 20876.95, 28192.50, 23043.40, 18619.56, 28351.69, 0.000, 0.000, 0.000, 14:15:24.329, 1560597324329
25, 28227.73, 27138.86, 28555.38, 20798.07, 28175.92, 22997.93, 18560.31, 28309.49, 0.000, 0.000, 0.000, 14:15:24.329, 1560597324329
26, 28146.97, 27085.53, 28505.13, 20744.50, 28160.11, 22967.71, 18507.31, 28275.40, 0.000, 0.000, 0.000, 14:15:24.330, 1560597324330
27, 28182.26, 27126.23, 28543.54, 20796.08, 28165.88, 23000.28, 18535.00, 28298.67, 0.000, 0.000, 0.000, 14:15:24.330, 1560597324330
28, 28304.46, 27205.78, 28607.24, 20884.11, 28187.70, 23056.63, 18611.87, 28353.99, -0.004, 0.054, -1.038, 14:15:24.330, 1560597324330
29, 28321.36, 27207.68, 28592.55, 20874.85, 28191.40, 23049.70, 18614.09, 28349.25, 0.000, 0.000, 0.000, 14:15:24.330, 1560597324330
30, 28246.66, 27167.05, 28544.50, 20804.80, 28172.29, 23003.45, 18549.73, 28298.20, 0.000, 0.000, 0.000, 14:15:24.331, 1560597324331
31, 28200.70, 27144.74, 28505.80, 20760.48, 28158.73, 22973.81, 18495.76, 28262.46, 0.000, 0.000, 0.000, 14:15:24.331, 1560597324331
32, 28238.70, 27156.72, 28530.73, 20808.58, 28162.28, 23001.08, 18524.32, 28281.93, 0.000, 0.000, 0.000, 14:15:24.331, 1560597324331
33, 28328.85, 27192.37, 28602.03, 20890.86, 28191.52, 23053.90, 18611.60, 28343.93, 0.000, 0.000, 0.000, 14:15:24.331, 1560597324331
34, 28297.73, 27179.47, 28607.19, 20871.90, 28198.15, 23045.34, 18616.90, 28345.21, 0.000, 0.000, 0.000, 14:15:24.332, 1560597324332
35, 28201.40, 27137.43, 28554.35, 20797.18, 28176.25, 22998.40, 18553.62, 28300.53, 0.000, 0.000, 0.000, 14:15:24.332, 1560597324332
36, 28155.29, 27101.65, 28501.33, 20739.15, 28155.57, 22968.16, 18498.55, 28271.33, 0.000, 0.000, 0.000, 14:15:24.332, 1560597324332
37, 28194.58, 27126.21, 28527.89, 20784.71, 28164.25, 23000.26, 18524.75, 28291.00, 0.000, 0.000, 0.000, 14:15:24.332, 1560597324332
38, 28280.83, 27177.73, 28609.88, 20874.43, 28189.39, 23052.02, 18602.73, 28343.44, -0.006, 0.056, -1.038, 14:15:24.333, 1560597324333
39, 28288.84, 27167.85, 28590.27, 20858.56, 28187.70, 23038.72, 18607.00, 28343.15, 0.000, 0.000, 0.000, 14:15:24.333, 1560597324333
40, 28225.36, 27118.92, 28536.56, 20788.57, 28168.03, 22990.27, 18544.48, 28296.70, 0.000, 0.000, 0.000, 14:15:24.333, 1560597324333
41, 28145.40, 27078.49, 28497.42, 20741.70, 28151.75, 22957.32, 18490.57, 28256.92, 0.000, 0.000, 0.000, 14:15:24.333, 1560597324333
42, 28179.83, 27119.84, 28529.59, 20794.68, 28162.55, 22993.55, 18521.84, 28284.08, 0.000, 0.000, 0.000, 14:15:24.333, 1560597324333
43, 28312.02, 27192.86, 28601.65, 20879.63, 28185.39, 23051.64, 18598.42, 28340.78, 0.000, 0.000, 0.000, 14:15:24.334, 1560597324334
44, 28313.00, 27189.26, 28597.11, 20872.04, 28187.96, 23042.90, 18597.37, 28333.61, 0.000, 0.000, 0.000, 14:15:24.335, 1560597324335
45, 28218.65, 27141.03, 28537.70, 20799.46, 28170.75, 22997.51, 18540.30, 28290.40, 0.000, 0.000, 0.000, 14:15:24.335, 1560597324335
46, 28181.32, 27097.62, 28498.27, 20743.22, 28153.18, 22965.08, 18489.59, 28258.19, 0.000, 0.000, 0.000, 14:15:24.335, 1560597324335
47, 28208.48, 27123.80, 28522.88, 20796.17, 28165.05, 23000.37, 18522.58, 28290.91, 0.000, 0.000, 0.000, 14:15:24.336, 1560597324336
48, 28275.92, 27194.05, 28607.53, 20883.55, 28188.19, 23045.43, 18597.08, 28334.72, 0.002, 0.056, -1.034, 14:15:24.336, 1560597324336
49, 28286.38, 27203.66, 28620.11, 20873.91, 28194.73, 23038.08, 18606.80, 28335.33, 0.000, 0.000, 0.000, 14:15:24.336, 1560597324336
50, 28235.19, 27146.15, 28558.80, 20805.09, 28183.22, 23001.60, 18555.59, 28307.84, 0.000, 0.000, 0.000, 14:15:24.337, 1560597324337
51, 28157.77, 27099.23, 28501.11, 20749.21, 28158.46, 22964.99, 18494.68, 28267.09, 0.000, 0.000, 0.000, 14:15:24.338, 1560597324338
52, 28173.10, 27120.15, 28525.45, 20797.04, 28163.82, 22995.52, 18524.43, 28292.86, 0.000, 0.000, 0.000, 14:15:24.338, 1560597324338
53, 28289.35, 27184.71, 28609.56, 20881.40, 28187.96, 23047.73, 18604.16, 28352.47, 0.000, 0.000, 0.000, 14:15:24.338, 1560597324338
54, 28291.68, 27178.89, 28609.34, 20869.55, 28186.80, 23035.57, 18603.94, 28342.26, 0.000, 0.000, 0.000, 14:15:24.338, 1560597324338
55, 28226.18, 27131.24, 28545.75, 20805.23, 28175.00, 22996.12, 18546.05, 28299.41, 0.000, 0.000, 0.000, 14:15:24.340, 1560597324340
56, 28188.46, 27092.37, 28504.78, 20750.60, 28169.77, 22970.71, 18499.85, 28272.50, 0.000, 0.000, 0.000, 14:15:24.340, 1560597324340
57, 28203.21, 27132.69, 28532.54, 20789.13, 28178.84, 23000.12, 18521.86, 28290.58, 0.000, 0.000, 0.000, 14:15:24.340, 1560597324340
58, 28300.95, 27203.59, 28608.18, 20883.75, 28200.57, 23052.94, 18594.66, 28339.08, 0.000, 0.058, -1.038, 14:15:24.340, 1560597324340
59, 28300.97, 27193.82, 28611.44, 20878.74, 28198.60, 23045.12, 18596.49, 28333.32, 0.000, 0.000, 0.000, 14:15:24.340, 1560597324340
60, 28229.16, 27140.89, 28571.09, 20812.22, 28184.68, 23005.38, 18540.19, 28294.31, 0.000, 0.000, 0.000, 14:15:24.344, 1560597324344
61, 28149.96, 27108.71, 28524.69, 20760.97, 28169.28, 22972.21, 18483.48, 28257.37, 0.000, 0.000, 0.000, 14:15:24.344, 1560597324344
62, 28194.13, 27152.07, 28541.46, 20798.72, 28171.60, 22996.05, 18507.38, 28274.24, 0.000, 0.000, 0.000, 14:15:24.345, 1560597324345
63, 28300.50, 27232.47, 28613.61, 20899.39, 28200.01, 23055.18, 18594.06, 28336.51, 0.000, 0.000, 0.000, 14:15:24.345, 1560597324345
64, 28301.04, 27205.04, 28623.80, 20886.77, 28209.44, 23058.93, 18603.91, 28343.49, 0.000, 0.000, 0.000, 14:15:24.346, 1560597324346
65, 28220.04, 27130.84, 28569.42, 20811.93, 28195.56, 23017.51, 18545.94, 28300.86, 0.000, 0.000, 0.000, 14:15:24.346, 1560597324346
66, 28154.03, 27085.64, 28524.92, 20757.35, 28181.17, 22987.58, 18490.12, 28267.40, 0.000, 0.000, 0.000, 14:15:24.346, 1560597324346
67, 28196.39, 27117.00, 28540.12, 20794.45, 28185.13, 23011.77, 18508.45, 28282.40, 0.000, 0.000, 0.000, 14:15:24.346, 1560597324346
68, 28322.65, 27202.45, 28609.38, 20889.13, 28209.20, 23066.62, 18589.23, 28341.25, 0.000, 0.052, -1.036, 14:15:24.346, 1560597324346
69, 28320.40, 27211.19, 28623.62, 20890.03, 28213.67, 23064.90, 18597.21, 28348.09, 0.000, 0.000, 0.000, 14:15:24.346, 1560597324346
70, 28228.64, 27154.89, 28565.04, 20817.39, 28197.39, 23025.65, 18551.14, 28320.29, 0.000, 0.000, 0.000, 14:15:24.346, 1560597324346
71, 28161.92, 27102.65, 28518.37, 20759.74, 28175.96, 22989.95, 18494.95, 28280.63, 0.000, 0.000, 0.000, 14:15:24.346, 1560597324346
72, 28188.19, 27125.29, 28546.84, 20805.03, 28175.36, 23013.47, 18508.56, 28293.20, 0.000, 0.000, 0.000, 14:15:24.346, 1560597324346
73, 28297.96, 27199.50, 28629.81, 20894.41, 28201.96, 23069.12, 18590.37, 28349.90, 0.000, 0.000, 0.000, 14:15:24.347, 1560597324347
74, 28324.26, 27197.96, 28624.18, 20894.37, 28207.81, 23063.11, 18601.05, 28355.18, 0.000, 0.000, 0.000, 14:15:24.347, 1560597324347
75, 28248.76, 27154.98, 28575.32, 20832.25, 28192.41, 23024.60, 18546.98, 28315.03, 0.000, 0.000, 0.000, 14:15:24.347, 1560597324347
76, 28175.51, 27123.75, 28517.88, 20772.10, 28174.75, 22992.21, 18496.25, 28289.55, 0.000, 0.000, 0.000, 14:15:24.347, 1560597324347
77, 28191.81, 27142.59, 28537.90, 20802.39, 28176.59, 23013.49, 18512.52, 28303.48, 0.000, 0.000, 0.000, 14:15:24.348, 1560597324348
78, 28286.20, 27209.18, 28620.45, 20892.71, 28196.34, 23064.21, 18587.53, 28348.05, -0.004, 0.050, -1.026, 14:15:24.348, 1560597324348
79, 28296.08, 27209.31, 28630.39, 20893.87, 28205.69, 23065.19, 18604.85, 28354.39, 0.000, 0.000, 0.000, 14:15:24.348, 1560597324348
80, 28215.32, 27142.82, 28574.45, 20818.73, 28191.96, 23023.14, 18552.42, 28315.35, 0.000, 0.000, 0.000, 14:15:24.348, 1560597324348
81, 28151.42, 27105.36, 28519.08, 20757.88, 28168.74, 22983.81, 18490.05, 28270.57, 0.000, 0.000, 0.000, 14:15:24.348, 1560597324348
82, 28220.19, 27145.01, 28554.31, 20804.47, 28178.04, 23012.44, 18514.91, 28296.66, 0.000, 0.000, 0.000, 14:15:24.348, 1560597324348
83, 28336.63, 27205.25, 28623.22, 20891.93, 28197.71, 23063.51, 18591.35, 28348.00, 0.000, 0.000, 0.000, 14:15:24.348, 1560597324348
84, 28337.99, 27202.72, 28612.15, 20891.28, 28206.31, 23061.32, 18602.22, 28350.26, 0.000, 0.000, 0.000, 14:15:24.349, 1560597324349
85, 28256.70, 27153.10, 28571.59, 20829.37, 28199.36, 23029.02, 18556.37, 28320.06, 0.000, 0.000, 0.000, 14:15:24.349, 1560597324349
86, 28192.99, 27105.29, 28531.96, 20767.32, 28183.69, 22994.27, 18499.89, 28279.34, 0.000, 0.000, 0.000, 14:15:24.349, 1560597324349
87, 28242.68, 27136.43, 28561.24, 20812.42, 28190.78, 23021.47, 18522.67, 28301.80, -0.002, 0.056, -1.028, 14:15:24.349, 1560597324349
88, 28316.11, 27208.29, 28637.08, 20901.56, 28210.87, 23069.70, 18600.76, 28358.64, 0.000, 0.000, 0.000, 14:15:24.350, 1560597324350
89, 28318.45, 27220.58, 28644.94, 20901.96, 28218.21, 23071.65, 18612.77, 28362.26, 0.000, 0.000, 0.000, 14:15:24.350, 1560597324350
90, 28250.86, 27166.06, 28593.29, 20828.38, 28202.87, 23027.17, 18552.37, 28314.07, 0.000, 0.000, 0.000, 14:15:24.350, 1560597324350
91, 28181.37, 27118.10, 28527.37, 20764.35, 28175.56, 22988.01, 18488.98, 28270.22, 0.000, 0.000, 0.000, 14:15:24.350, 1560597324350
92, 28211.39, 27140.00, 28526.55, 20804.38, 28169.19, 23007.54, 18504.43, 28278.89, 0.000, 0.000, 0.000, 14:15:24.350, 1560597324350
93, 28328.29, 27216.62, 28607.01, 20901.52, 28196.57, 23065.50, 18592.56, 28341.68, 0.000, 0.000, 0.000, 14:15:24.350, 1560597324350
94, 28316.04, 27217.96, 28623.17, 20895.17, 28200.44, 23057.05, 18600.61, 28336.56, 0.000, 0.000, 0.000, 14:15:24.350, 1560597324350
95, 28240.47, 27160.70, 28579.03, 20822.66, 28183.69, 23012.42, 18543.65, 28293.84, 0.000, 0.000, 0.000, 14:15:24.351, 1560597324351
96, 28180.16, 27127.86, 28528.74, 20764.41, 28171.47, 22983.72, 18498.39, 28277.59, 0.000, 0.000, 0.000, 14:15:24.351, 1560597324351
97, 28211.03, 27153.26, 28542.64, 20796.87, 28174.57, 23001.71, 18514.75, 28288.17, -0.002, 0.052, -1.028, 14:15:24.352, 1560597324352
98, 28321.58, 27218.88, 28630.55, 20894.70, 28204.97, 23056.34, 18596.03, 28338.84, 0.000, 0.000, 0.000, 14:15:24.352, 1560597324352
99, 28330.48, 27210.52, 28637.86, 20889.54, 28208.59, 23052.16, 18607.63, 28339.53, 0.000, 0.000, 0.000, 14:15:24.353, 1560597324353
100, 28245.99, 27144.96, 28581.98, 20815.80, 28188.23, 23009.76, 18551.37, 28305.02, 0.000, 0.000, 0.000, 14:15:24.353, 1560597324353
101, 28173.50, 27098.00, 28529.74, 20765.53, 28172.99, 22980.45, 18496.02, 28269.30, 0.000, 0.000, 0.000, 14:15:24.354, 1560597324354
102, 28206.25, 27124.60, 28555.43, 20803.97, 28177.19, 23006.49, 18515.09, 28287.52, 0.000, 0.000, 0.000, 14:15:24.354, 1560597324354
103, 28297.26, 27191.50, 28615.57, 20882.85, 28192.68, 23052.22, 18587.80, 28332.58, 0.000, 0.000, 0.000, 14:15:24.355, 1560597324355
104, 28316.82, 27207.35, 28622.12, 20887.17, 28200.95, 23052.43, 18602.95, 28334.72, 0.000, 0.000, 0.000, 14:15:24.779, 1560597324779
105, 28256.22, 27163.25, 28567.32, 20819.78, 28183.16, 23012.37, 18544.86, 28291.12, 0.000, 0.000, 0.000, 14:15:24.779, 1560597324779
106, 28205.17, 27121.14, 28526.70, 20763.45, 28167.24, 22982.44, 18489.79, 28258.26, 0.000, 0.000, 0.000, 14:15:24.779, 1560597324779
107, 28205.58, 27136.98, 28555.76, 20800.78, 28175.40, 23007.61, 18505.86, 28275.25, 0.004, 0.052, -1.030, 14:15:24.780, 1560597324780
108, 28305.62, 27218.84, 28624.18, 20888.24, 28198.54, 23063.22, 18586.73, 28334.93, 0.000, 0.000, 0.000, 14:15:24.780, 1560597324780
109, 28353.66, 27235.96, 28631.20, 20890.83, 28202.38, 23058.10, 18596.52, 28336.33, 0.000, 0.000, 0.000, 14:15:24.780, 1560597324780
110, 28275.63, 27157.50, 28579.68, 20828.23, 28190.06, 23019.21, 18548.66, 28304.08, 0.000, 0.000, 0.000, 14:15:24.780, 1560597324780
111, 28186.44, 27105.91, 28520.91, 20767.99, 28173.79, 22984.50, 18497.21, 28269.77, 0.000, 0.000, 0.000, 14:15:24.780, 1560597324780
112, 28180.56, 27135.93, 28547.54, 20792.98, 28176.50, 23001.20, 18514.89, 28286.98, 0.000, 0.000, 0.000, 14:15:24.780, 1560597324780
113, 28294.51, 27200.73, 28621.81, 20886.12, 28197.93, 23055.42, 18594.53, 28344.83, 0.000, 0.000, 0.000, 14:15:24.781, 1560597324781
114, 28326.46, 27201.27, 28629.30, 20885.40, 28200.37, 23050.17, 18603.33, 28340.29, 0.000, 0.000, 0.000, 14:15:24.781, 1560597324781
115, 28238.16, 27155.47, 28568.39, 20814.61, 28185.46, 23011.59, 18548.13, 28305.15, 0.000, 0.000, 0.000, 14:15:24.781, 1560597324781
116, 28170.80, 27109.83, 28529.03, 20762.85, 28180.05, 22989.66, 18499.96, 28280.57, 0.000, 0.000, 0.000, 14:15:24.781, 1560597324781
117, 28214.79, 27129.63, 28538.26, 20795.50, 28182.06, 23009.31, 18511.80, 28292.30, 0.008, 0.056, -1.032, 14:15:24.781, 1560597324781
118, 28295.65, 27210.25, 28622.44, 20896.15, 28208.15, 23068.25, 18594.06, 28353.37, 0.000, 0.000, 0.000, 14:15:24.781, 1560597324781
119, 28315.08, 27215.28, 28640.76, 20894.88, 28212.01, 23063.33, 18609.19, 28352.83, 0.000, 0.000, 0.000, 14:15:24.781, 1560597324781
120, 28255.98, 27163.98, 28591.86, 20826.84, 28196.57, 23022.43, 18557.63, 28319.57, 0.000, 0.000, 0.000, 14:15:24.781, 1560597324781
121, 28183.45, 27114.25, 28531.80, 20762.09, 28176.43, 22983.90, 18495.71, 28283.40, 0.000, 0.000, 0.000, 14:15:24.781, 1560597324781
122, 28225.40, 27140.13, 28537.79, 20787.37, 28176.25, 22999.70, 18503.64, 28290.47, 0.000, 0.000, 0.000, 14:15:24.781, 1560597324781
123, 28311.75, 27204.55, 28619.31, 20887.44, 28201.73, 23057.14, 18583.40, 28342.08, 0.000, 0.000, 0.000, 14:15:24.782, 1560597324782
124, 28312.33, 27215.39, 28639.15, 20890.39, 28207.03, 23055.62, 18600.09, 28348.49, 0.000, 0.000, 0.000, 14:15:24.782, 1560597324782
125, 28252.51, 27161.68, 28575.01, 20818.39, 28192.37, 23018.96, 18554.25, 28315.81, 0.000, 0.000, 0.000, 14:15:24.782, 1560597324782
126, 28206.45, 27104.13, 28528.96, 20763.72, 28178.46, 22984.30, 18498.62, 28279.61, 0.000, 0.000, 0.000, 14:15:24.782, 1560597324782
127, 28198.24, 27124.69, 28554.13, 20790.65, 28178.02, 22996.68, 18504.88, 28286.40, 0.008, 0.058, -1.032, 14:15:24.782, 1560597324782
128, 28281.75, 27210.32, 28625.52, 20879.86, 28200.26, 23052.20, 18588.18, 28347.02, 0.000, 0.000, 0.000, 14:15:24.782, 1560597324782
129, 28303.28, 27212.44, 28632.67, 20890.59, 28207.32, 23055.00, 18614.22, 28358.17, 0.000, 0.000, 0.000, 14:15:24.782, 1560597324782
130, 28256.34, 27154.55, 28578.16, 20824.27, 28191.23, 23014.85, 18563.68, 28321.25, 0.000, 0.000, 0.000, 14:15:24.783, 1560597324783
131, 28210.94, 27107.39, 28516.11, 20758.71, 28165.19, 22975.22, 18503.36, 28284.43, 0.000, 0.000, 0.000, 14:15:24.783, 1560597324783
132, 28204.41, 27118.01, 28527.78, 20786.90, 28166.73, 22992.28, 18512.70, 28295.54, 0.000, 0.000, 0.000, 14:15:24.788, 1560597324788
133, 28278.15, 27192.37, 28611.46, 20875.43, 28192.46, 23048.74, 18590.35, 28352.38, 0.000, 0.000, 0.000, 14:15:24.788, 1560597324788
134, 28292.95, 27213.16, 28627.89, 20881.54, 28198.47, 23048.92, 18605.86, 28355.45, 0.000, 0.000, 0.000, 14:15:24.788, 1560597324788
135, 28238.95, 27166.67, 28569.19, 20813.25, 28184.99, 23008.75, 18554.36, 28315.46, 0.000, 0.000, 0.000, 14:15:24.788, 1560597324788
136, 28180.86, 27095.25, 28519.39, 20750.55, 28163.26, 22971.76, 18490.35, 28274.02, 0.000, 0.000, 0.000, 14:15:24.789, 1560597324789
137, 28195.65, 27109.67, 28534.75, 20773.11, 28161.43, 22985.55, 18493.59, 28277.82, 0.006, 0.058, -1.038, 14:15:24.789, 1560597324789
138, 28289.98, 27199.32, 28622.77, 20863.54, 28186.13, 23044.11, 18572.76, 28329.03, 0.000, 0.000, 0.000, 14:15:24.789, 1560597324789
139, 28330.81, 27214.32, 28632.63, 20879.57, 28195.79, 23056.90, 18607.07, 28361.86, 0.000, 0.000, 0.000, 14:15:24.789, 1560597324789
140, 28245.96, 27153.64, 28576.68, 20822.10, 28185.68, 23021.02, 18559.19, 28326.16, 0.000, 0.000, 0.000, 14:15:24.789, 1560597324789
141, 28156.18, 27102.74, 28531.11, 20762.85, 28177.53, 22988.93, 18501.66, 28285.30, 0.000, 0.000, 0.000, 14:15:24.789, 1560597324789
142, 28171.00, 27119.21, 28540.65, 20783.97, 28177.41, 23002.20, 18510.08, 28299.32, 0.000, 0.000, 0.000, 14:15:24.790, 1560597324790
143, 28297.93, 27193.71, 28609.09, 20878.23, 28197.28, 23055.24, 18594.91, 28358.84, 0.000, 0.000, 0.000, 14:15:24.790, 1560597324790
144, 28332.58, 27200.04, 28610.99, 20874.67, 28198.22, 23051.64, 18611.63, 28355.56, 0.000, 0.000, 0.000, 14:15:24.790, 1560597324790
145, 28282.29, 27144.92, 28559.58, 20810.46, 28181.55, 23011.61, 18558.90, 28322.88, 0.000, 0.000, 0.000, 14:15:24.790, 1560597324790
146, 28182.44, 27093.29, 28519.01, 20761.62, 28173.50, 22983.02, 18506.82, 28286.00, 0.000, 0.000, 0.000, 14:15:24.790, 1560597324790
147, 28154.55, 27111.62, 28543.27, 20784.78, 28174.71, 22995.90, 18511.69, 28288.21, 0.004, 0.062, -1.034, 14:15:24.790, 1560597324790
148, 28258.71, 27195.84, 28627.64, 20880.39, 28201.26, 23056.54, 18595.73, 28345.34, 0.000, 0.000, 0.000, 14:15:24.791, 1560597324791
149, 28300.06, 27205.60, 28627.29, 20889.09, 28208.41, 23057.70, 18617.04, 28358.33, 0.000, 0.000, 0.000, 14:15:24.791, 1560597324791
150, 28235.64, 27149.68, 28567.05, 20818.66, 28193.21, 23014.92, 18564.15, 28326.03, 0.000, 0.000, 0.000, 14:15:24.791, 1560597324791
151, 28169.43, 27119.17, 28525.38, 20756.68, 28175.07, 22981.24, 18503.31, 28289.69, 0.000, 0.000, 0.000, 14:15:24.791, 1560597324791
152, 28186.13, 27151.36, 28536.94, 20784.15, 28177.12, 22996.93, 18516.25, 28300.91, 0.000, 0.000, 0.000, 14:15:24.791, 1560597324791
153, 28301.78, 27206.63, 28617.09, 20892.94, 28206.07, 23056.74, 18596.96, 28358.10, 0.000, 0.000, 0.000, 14:15:24.791, 1560597324791
154, 28313.42, 27203.57, 28636.70, 20892.80, 28205.29, 23058.06, 18610.15, 28359.09, 0.000, 0.000, 0.000, 14:15:24.791, 1560597324791
155, 28249.79, 27143.87, 28568.05, 20823.96, 28183.27, 23017.67, 18556.04, 28321.43, 0.000, 0.000, 0.000, 14:15:24.792, 1560597324792
156, 28193.62, 27101.89, 28513.90, 20769.75, 28171.60, 22987.61, 18506.80, 28292.37, 0.000, 0.000, 0.000, 14:15:24.792, 1560597324792
157, 28212.35, 27116.29, 28527.11, 20785.69, 28170.04, 22998.02, 18508.61, 28297.60, 0.004, 0.058, -1.036, 14:15:24.792, 1560597324792
158, 28304.21, 27203.05, 28614.05, 20886.43, 28196.34, 23053.79, 18584.56, 28347.98, 0.000, 0.000, 0.000, 14:15:24.792, 1560597324792
159, 28311.70, 27221.81, 28644.01, 20901.65, 28212.88, 23060.88, 18614.89, 28370.58, 0.000, 0.000, 0.000, 14:15:24.792, 1560597324792
160, 28234.59, 27163.00, 28593.76, 20833.46, 28196.59, 23019.79, 18561.69, 28328.71, 0.000, 0.000, 0.000, 14:15:24.792, 1560597324792
161, 28171.27, 27107.48, 28538.77, 20760.93, 28175.22, 22978.87, 18499.06, 28280.34, 0.000, 0.000, 0.000, 14:15:24.792, 1560597324792
162, 28187.47, 27120.26, 28543.38, 20778.27, 28171.89, 22993.82, 18506.53, 28297.11, 0.000, 0.000, 0.000, 14:15:24.792, 1560597324792
163, 28288.79, 27197.51, 28615.84, 20879.10, 28196.88, 23053.25, 18589.61, 28355.20, 0.000, 0.000, 0.000, 14:15:24.792, 1560597324792
164, 28323.08, 27208.58, 28628.45, 20887.59, 28200.21, 23052.02, 18611.67, 28361.03, 0.000, 0.000, 0.000, 14:15:24.793, 1560597324793
165, 28264.63, 27163.36, 28576.57, 20819.84, 28186.42, 23012.35, 18562.54, 28323.71, 0.000, 0.000, 0.000, 14:15:24.793, 1560597324793
166, 28178.02, 27109.89, 28512.20, 20744.29, 28163.71, 22970.91, 18490.75, 28271.96, 0.000, 0.000, 0.000, 14:15:24.793, 1560597324793
167, 28198.47, 27130.50, 28520.11, 20766.45, 28164.65, 22988.23, 18502.48, 28291.18, 0.008, 0.060, -1.030, 14:15:24.793, 1560597324793
168, 28296.62, 27190.29, 28602.10, 20869.78, 28189.82, 23046.12, 18586.59, 28350.19, 0.000, 0.000, 0.000, 14:15:24.793, 1560597324793
169, 28311.12, 27206.77, 28629.05, 20885.36, 28199.52, 23051.64, 18613.93, 28362.22, 0.000, 0.000, 0.000, 14:15:24.793, 1560597324793
170, 28236.42, 27163.83, 28582.92, 20816.69, 28185.75, 23011.59, 18563.30, 28326.79, 0.000, 0.000, 0.000, 14:15:24.793, 1560597324793
171, 28170.71, 27097.51, 28523.87, 20755.56, 28170.21, 22972.09, 18503.04, 28286.69, 0.000, 0.000, 0.000, 14:15:24.794, 1560597324794
172, 28170.86, 27111.50, 28533.88, 20769.06, 28167.96, 22982.02, 18505.50, 28289.73, 0.000, 0.000, 0.000, 14:15:24.794, 1560597324794
173, 28273.57, 27186.40, 28606.39, 20862.96, 28187.36, 23037.00, 18582.08, 28348.45, 0.000, 0.000, 0.000, 14:15:24.794, 1560597324794
174, 28320.69, 27202.43, 28633.84, 20877.18, 28195.00, 23042.84, 18609.03, 28358.51, 0.000, 0.000, 0.000, 14:15:24.794, 1560597324794
175, 28270.71, 27153.77, 28577.51, 20809.63, 28179.29, 23000.19, 18554.50, 28309.89, 0.000, 0.000, 0.000, 14:15:24.794, 1560597324794
176, 28181.10, 27108.44, 28515.44, 20751.11, 28166.35, 22971.11, 18499.94, 28279.38, 0.000, 0.000, 0.000, 14:15:24.795, 1560597324795
177, 28193.89, 27113.80, 28524.94, 20770.60, 28168.54, 22984.10, 18508.45, 28292.12, 0.004, 0.054, -1.036, 14:15:24.795, 1560597324795
178, 28310.45, 27190.20, 28612.94, 20870.18, 28192.03, 23041.36, 18587.35, 28348.58, 0.000, 0.000, 0.000, 14:15:24.795, 1560597324795
179, 28320.42, 27205.71, 28624.27, 20883.93, 28197.24, 23042.50, 18606.37, 28350.88, 0.000, 0.000, 0.000, 14:15:24.795, 1560597324795
180, 28253.59, 27162.87, 28578.89, 20810.75, 28185.97, 23003.43, 18562.63, 28320.51, 0.000, 0.000, 0.000, 14:15:24.795, 1560597324795
181, 28191.34, 27114.63, 28533.10, 20747.47, 28170.19, 22967.76, 18503.56, 28284.66, 0.000, 0.000, 0.000, 14:15:24.795, 1560597324795
182, 28188.16, 27113.40, 28542.46, 20768.64, 28170.30, 22979.78, 18503.76, 28290.98, 0.000, 0.000, 0.000, 14:15:24.796, 1560597324796
183, 28272.81, 27182.85, 28622.17, 20863.47, 28187.96, 23035.04, 18579.42, 28343.49, 0.000, 0.000, 0.000, 14:15:24.796, 1560597324796
184, 28307.32, 27214.72, 28644.92, 20888.04, 28199.52, 23047.98, 18608.59, 28361.72, 0.000, 0.000, 0.000, 14:15:24.796, 1560597324796
185, 28265.68, 27176.50, 28586.83, 20827.33, 28189.59, 23013.00, 18570.68, 28333.58, 0.000, 0.000, 0.000, 14:15:24.796, 1560597324796
186, 28199.81, 27117.27, 28532.96, 20758.09, 28167.29, 22972.83, 18508.23, 28292.12, 0.000, 0.000, 0.000, 14:15:24.797, 1560597324797
187, 28186.09, 27129.41, 28540.12, 20767.27, 28160.65, 22977.19, 18498.77, 28281.66, 0.004, 0.052, -1.026, 14:15:24.797, 1560597324797
188, 28281.46, 27191.66, 28614.12, 20864.84, 28185.97, 23034.97, 18574.95, 28336.22, 0.000, 0.000, 0.000, 14:15:24.797, 1560597324797
189, 28340.02, 27213.74, 28629.66, 20889.02, 28195.52, 23048.20, 18605.90, 28357.17, 0.000, 0.000, 0.000, 14:15:24.797, 1560597324797
190, 28273.01, 27160.56, 28583.72, 20832.25, 28185.64, 23013.33, 18565.63, 28322.30, 0.000, 0.000, 0.000, 14:15:24.798, 1560597324798
191, 28188.14, 27119.75, 28536.90, 20771.21, 28177.64, 22983.20, 18514.96, 28298.16, 0.000, 0.000, 0.000, 14:15:24.798, 1560597324798
192, 28203.94, 27138.88, 28546.39, 20779.54, 28176.52, 22992.81, 18513.44, 28304.73, 0.000, 0.000, 0.000, 14:15:24.798, 1560597324798
193, 28306.61, 27213.96, 28633.57, 20876.19, 28203.63, 23052.38, 18593.43, 28357.86, 0.000, 0.000, 0.000, 14:15:24.798, 1560597324798
194, 28335.82, 27229.77, 28653.08, 20898.95, 28207.99, 23055.76, 18615.67, 28361.10, 0.000, 0.000, 0.000, 14:15:24.798, 1560597324798
195, 28291.18, 27178.00, 28594.27, 20829.66, 28185.57, 23011.08, 18561.25, 28323.30, 0.000, 0.000, 0.000, 14:15:24.799, 1560597324799
196, 28183.72, 27122.99, 28541.70, 20765.84, 28167.69, 22975.22, 18507.67, 28293.15, 0.002, 0.048, -1.022, 14:15:24.799, 1560597324799
197, 28176.54, 27130.64, 28549.68, 20780.37, 28169.32, 22989.86, 18513.59, 28310.41, 0.000, 0.000, 0.000, 14:15:24.799, 1560597324799
198, 28290.65, 27190.14, 28609.61, 20872.19, 28190.76, 23044.29, 18591.22, 28362.02, 0.000, 0.000, 0.000, 14:15:24.799, 1560597324799
199, 28336.45, 27195.57, 28625.79, 20888.42, 28195.36, 23049.30, 18617.97, 28374.67, 0.000, 0.000, 0.000, 14:15:24.799, 1560597324799
200, 28250.79, 27151.58, 28576.55, 20824.34, 28184.01, 23012.10, 18569.67, 28337.00, 0.000, 0.000, 0.000, 14:15:24.799, 1560597324799
201, 28154.95, 27110.79, 28531.98, 20764.72, 28174.98, 22983.36, 18514.24, 28302.81, 0.000, 0.000, 0.000, 14:15:24.799, 1560597324799
202, 28160.65, 27124.65, 28543.18, 20780.68, 28171.58, 22990.56, 18507.85, 28302.81, 0.000, 0.000, 0.000, 14:15:24.799, 1560597324799
203, 28258.88, 27199.08, 28613.79, 20881.36, 28194.00, 23047.69, 18584.16, 28360.83, 0.000, 0.000, 0.000, 14:15:24.799, 1560597324799
204, 28292.37, 27216.58, 28639.54, 20898.68, 28208.97, 23062.39, 18618.53, 28387.07, 0.000, 0.000, 0.000, 14:15:24.799, 1560597324799
205, 28235.19, 27152.59, 28588.06, 20823.67, 28194.42, 23018.50, 18572.80, 28351.20, 0.000, 0.000, 0.000, 14:15:24.799, 1560597324799
206, 28161.88, 27090.78, 28531.71, 20752.70, 28169.86, 22971.87, 18504.52, 28301.69, 0.006, 0.048, -1.030, 14:15:24.800, 1560597324800
207, 28178.75, 27105.04, 28541.19, 20771.32, 28168.99, 22983.65, 18500.67, 28296.03, 0.000, 0.000, 0.000, 14:15:24.800, 1560597324800
208, 28295.68, 27181.46, 28614.12, 20868.06, 28190.67, 23040.54, 18578.21, 28342.88, 0.000, 0.000, 0.000, 14:15:24.800, 1560597324800
209, 28340.51, 27201.74, 28629.39, 20891.91, 28200.37, 23051.15, 18610.49, 28364.90, 0.000, 0.000, 0.000, 14:15:24.800, 1560597324800
210, 28239.10, 27163.58, 28589.33, 20833.75, 28194.45, 23023.64, 18579.13, 28348.00, 0.000, 0.000, 0.000, 14:15:24.800, 1560597324800
211, 28160.72, 27117.61, 28535.82, 20757.24, 28170.55, 22979.11, 18514.51, 28297.73, 0.000, 0.000, 0.000, 14:15:24.801, 1560597324801
212, 28144.62, 27116.44, 28533.83, 20770.83, 28165.68, 22980.23, 18504.85, 28293.62, 0.000, 0.000, 0.000, 14:15:24.801, 1560597324801
213, 28237.88, 27186.11, 28616.36, 20872.24, 28190.58, 23037.99, 18590.08, 28346.79, 0.000, 0.000, 0.000, 14:15:24.801, 1560597324801
214, 28303.59, 27214.54, 28647.47, 20900.31, 28204.88, 23058.13, 18628.57, 28377.24, 0.000, 0.000, 0.000, 14:15:24.801, 1560597324801
215, 28250.39, 27152.59, 28592.53, 20830.01, 28186.42, 23014.16, 18570.39, 28331.64, 0.000, 0.000, 0.000, 14:15:24.801, 1560597324801
216, 28177.35, 27099.50, 28522.23, 20758.87, 28167.09, 22972.63, 18508.83, 28294.80, 0.004, 0.050, -1.038, 14:15:24.801, 1560597324801
217, 28175.40, 27120.87, 28531.78, 20774.52, 28175.02, 22988.46, 18518.11, 28314.92, 0.000, 0.000, 0.000, 14:15:24.801, 1560597324801
218, 28303.50, 27195.37, 28610.75, 20877.06, 28195.05, 23041.56, 18585.56, 28355.58, 0.000, 0.000, 0.000, 14:15:24.802, 1560597324802
219, 28348.11, 27213.72, 28648.36, 20901.43, 28203.54, 23056.92, 18613.91, 28369.28, 0.000, 0.000, 0.000, 14:15:24.802, 1560597324802
220, 28248.71, 27166.06, 28590.56, 20830.37, 28185.06, 23013.11, 18561.25, 28330.59, 0.000, 0.000, 0.000, 14:15:24.802, 1560597324802
221, 28177.53, 27118.21, 28527.78, 20764.14, 28167.89, 22972.92, 18497.95, 28292.46, 0.000, 0.000, 0.000, 14:15:24.802, 1560597324802
222, 28149.25, 27106.14, 28526.26, 20767.03, 28162.19, 22974.93, 18489.61, 28289.82, 0.000, 0.000, 0.000, 14:15:24.802, 1560597324802
223, 28236.71, 27191.61, 28612.49, 20870.58, 28190.60, 23038.28, 18580.20, 28359.83, 0.000, 0.000, 0.000, 14:15:24.802, 1560597324802
224, 28299.16, 27215.08, 28633.03, 20895.21, 28199.70, 23049.74, 18616.66, 28378.89, 0.000, 0.000, 0.000, 14:15:25.262, 1560597325262
225, 28250.46, 27148.12, 28582.02, 20824.54, 28184.81, 23008.15, 18566.74, 28338.30, 0.000, 0.000, 0.000, 14:15:25.263, 1560597325263
226, 28165.50, 27094.56, 28539.89, 20756.70, 28168.92, 22966.08, 18497.99, 28287.76, 0.000, 0.048, -1.032, 14:15:25.263, 1560597325263
227, 28158.79, 27106.76, 28545.28, 20768.86, 28170.39, 22976.34, 18494.57, 28291.34, 0.000, 0.000, 0.000, 14:15:25.264, 1560597325264
228, 28274.89, 27185.82, 28618.64, 20872.24, 28197.66, 23039.60, 18576.11, 28345.16, 0.000, 0.000, 0.000, 14:15:25.264, 1560597325264
229, 28329.94, 27205.80, 28643.25, 20896.27, 28203.94, 23051.76, 18612.61, 28372.54, 0.000, 0.000, 0.000, 14:15:25.264, 1560597325264
230, 28273.14, 27163.76, 28588.01, 20829.50, 28187.63, 23010.56, 18563.23, 28331.93, 0.000, 0.000, 0.000, 14:15:25.264, 1560597325264
231, 28165.70, 27116.87, 28537.21, 20763.38, 28165.86, 22970.24, 18494.35, 28279.98, 0.000, 0.000, 0.000, 14:15:25.264, 1560597325264
232, 28187.63, 27122.37, 28537.46, 20774.31, 28158.84, 22974.49, 18477.92, 28267.67, 0.000, 0.000, 0.000, 14:15:25.265, 1560597325265
233, 28300.57, 27213.16, 28615.62, 20873.20, 28179.87, 23034.52, 18554.05, 28324.69, 0.000, 0.000, 0.000, 14:15:25.265, 1560597325265
234, 28303.83, 27236.16, 28642.22, 20902.21, 28191.32, 23048.40, 18592.22, 28349.97, 0.000, 0.000, 0.000, 14:15:25.265, 1560597325265
235, 28229.47, 27171.16, 28586.23, 20838.17, 28179.92, 23009.78, 18547.46, 28312.48, 0.000, 0.000, 0.000, 14:15:25.265, 1560597325265
236, 28160.69, 27099.05, 28531.31, 20761.15, 28161.86, 22968.63, 18483.78, 28266.71, 0.002, 0.050, -1.034, 14:15:25.265, 1560597325265
237, 28153.63, 27097.04, 28525.94, 20767.65, 28158.53, 22974.66, 18473.49, 28264.21, 0.000, 0.000, 0.000, 14:15:25.265, 1560597325265
238, 28251.78, 27198.81, 28597.67, 20862.02, 28174.95, 23026.05, 18547.99, 28317.92, 0.000, 0.000, 0.000, 14:15:25.265, 1560597325265
239, 28288.23, 27205.71, 28622.10, 20877.49, 28183.22, 23038.03, 18583.29, 28333.88, 0.000, 0.000, 0.000, 14:15:25.266, 1560597325266
240, 28238.97, 27110.03, 28581.91, 20809.81, 28173.48, 22998.69, 18543.90, 28297.15, 0.000, 0.000, 0.000, 14:15:25.266, 1560597325266
241, 28141.90, 27052.27, 28524.98, 20745.97, 28158.79, 22961.88, 18485.76, 28265.01, 0.000, 0.000, 0.000, 14:15:25.267, 1560597325267
242, 28114.89, 27065.70, 28536.11, 20753.91, 28160.54, 22967.60, 18482.75, 28265.32, 0.000, 0.000, 0.000, 14:15:25.267, 1560597325267
243, 28224.96, 27145.03, 28607.19, 20849.84, 28179.09, 23022.21, 18554.36, 28311.70, 0.000, 0.000, 0.000, 14:15:25.267, 1560597325267
244, 28282.64, 27178.85, 28639.29, 20884.82, 28193.08, 23039.91, 18590.26, 28333.27, 0.000, 0.000, 0.000, 14:15:25.267, 1560597325267
245, 28243.08, 27136.34, 28588.28, 20818.48, 28179.31, 23004.88, 18554.43, 28309.69, 0.000, 0.000, 0.000, 14:15:25.267, 1560597325267
246, 28164.18, 27074.31, 28522.63, 20746.80, 28154.46, 22960.74, 18490.66, 28261.25, 0.002, 0.054, -1.036, 14:15:25.268, 1560597325268
247, 28139.41, 27074.85, 28527.31, 20751.72, 28149.07, 22963.27, 18482.99, 28257.77, 0.000, 0.000, 0.000, 14:15:25.268, 1560597325268
248, 28242.12, 27150.17, 28607.91, 20847.16, 28178.04, 23021.29, 18563.37, 28317.20, 0.000, 0.000, 0.000, 14:15:25.268, 1560597325268
249, 28304.42, 27173.48, 28618.81, 20869.94, 28181.79, 23026.50, 18596.72, 28332.42, 0.000, 0.000, 0.000, 14:15:25.268, 1560597325268
250, 28251.35, 27122.63, 28577.82, 20803.46, 28166.19, 22987.12, 18547.90, 28286.73, 0.000, 0.000, 0.000, 14:15:25.268, 1560597325268
251, 28171.54, 27072.68, 28528.22, 20735.13, 28152.87, 22953.10, 18484.80, 28241.74, 0.000, 0.000, 0.000, 14:15:25.268, 1560597325268
252, 28144.42, 27076.72, 28518.68, 20736.88, 28146.30, 22956.74, 18472.82, 28247.26, 0.000, 0.000, 0.000, 14:15:25.268, 1560597325268
253, 28227.53, 27164.52, 28592.80, 20843.29, 28170.75, 23018.79, 18560.24, 28314.05, 0.000, 0.000, 0.000, 14:15:25.268, 1560597325268
254, 28277.71, 27183.14, 28632.16, 20874.45, 28184.14, 23037.29, 18598.44, 28337.12, 0.000, 0.000, 0.000, 14:15:25.268, 1560597325268
255, 28227.01, 27137.50, 28580.48, 20812.78, 28168.76, 23000.97, 18553.47, 28305.60, 0.000, 0.000, 0.000, 14:15:25.269, 1560597325269
0, 28141.49, 27086.98, 28521.94, 20744.74, 28152.38, 22960.85, 18490.28, 28265.81, 0.002, 0.048, -1.042, 14:15:25.269, 1560597325269
1, 28125.71, 27086.09, 28513.92, 20741.21, 28146.90, 22961.59, 18473.83, 28257.86, 0.000, 0.000, 0.000, 14:15:25.269, 1560597325269
2, 28239.33, 27159.96, 28593.54, 20835.00, 28168.92, 23020.53, 18551.59, 28317.27, 0.000, 0.000, 0.000, 14:15:25.269, 1560597325269
3, 28298.96, 27172.10, 28629.63, 20869.76, 28183.65, 23039.35, 18601.86, 28350.91, 0.000, 0.000, 0.000, 14:15:25.269, 1560597325269
4, 28239.35, 27124.29, 28594.09, 20808.29, 28174.44, 23002.56, 18561.58, 28320.69, 0.000, 0.000, 0.000, 14:15:25.269, 1560597325269
5, 28158.35, 27072.68, 28540.20, 20752.83, 28164.54, 22969.12, 18503.31, 28281.77, 0.000, 0.000, 0.000, 14:15:25.269, 1560597325269
6, 28139.53, 27068.25, 28530.08, 20751.58, 28158.30, 22968.85, 18482.68, 28267.65, 0.000, 0.000, 0.000, 14:15:25.269, 1560597325269
7, 28235.35, 27142.42, 28594.27, 20833.39, 28170.33, 23016.33, 18548.35, 28309.40, 0.000, 0.000, 0.000, 14:15:25.269, 1560597325269
8, 28300.06, 27176.50, 28633.77, 20868.71, 28184.32, 23036.36, 18590.32, 28333.29, 0.000, 0.000, 0.000, 14:15:25.269, 1560597325269
9, 28239.84, 27141.28, 28595.10, 20821.65, 28177.32, 23005.71, 18549.80, 28301.51, 0.000, 0.000, 0.000, 14:15:25.270, 1560597325270
10, 28167.11, 27090.00, 28522.28, 20745.66, 28153.54, 22959.00, 18481.85, 28248.51, 0.006, 0.050, -1.038, 14:15:25.270, 1560597325270
11, 28155.69, 27082.58, 28516.18, 20745.01, 28149.14, 22965.21, 18476.60, 28258.48, 0.000, 0.000, 0.000, 14:15:25.270, 1560597325270
12, 28234.34, 27149.25, 28605.45, 20839.22, 28171.51, 23024.73, 18555.50, 28322.47, 0.000, 0.000, 0.000, 14:15:25.271, 1560597325271
13, 28272.29, 27184.12, 28651.78, 20884.11, 28189.10, 23047.20, 18600.43, 28352.09, 0.000, 0.000, 0.000, 14:15:25.271, 1560597325271
14, 28230.41, 27142.08, 28600.49, 20823.64, 28177.88, 23009.31, 18555.41, 28319.93, 0.000, 0.000, 0.000, 14:15:25.271, 1560597325271
15, 28143.37, 27095.68, 28540.63, 20751.49, 28163.38, 22967.71, 18491.33, 28280.90, 0.000, 0.000, 0.000, 14:15:25.271, 1560597325271
16, 28147.75, 27093.40, 28523.57, 20748.03, 28153.90, 22964.25, 18473.07, 28275.69, 0.000, 0.000, 0.000, 14:15:25.271, 1560597325271
17, 28269.10, 27159.80, 28598.16, 20842.40, 28174.28, 23024.80, 18548.35, 28334.26, 0.000, 0.000, 0.000, 14:15:25.272, 1560597325272
18, 28315.19, 27197.96, 28635.24, 20877.24, 28185.28, 23042.35, 18586.19, 28355.18, 0.000, 0.000, 0.000, 14:15:25.272, 1560597325272
19, 28272.79, 27143.71, 28586.45, 20823.85, 28173.84, 23008.35, 18547.81, 28322.90, 0.000, 0.000, 0.000, 14:15:25.272, 1560597325272
20, 28159.04, 27103.23, 28533.56, 20753.57, 28151.62, 22965.72, 18483.78, 28282.60, 0.002, 0.050, -1.036, 14:15:25.272, 1560597325272
21, 28137.67, 27087.65, 28531.96, 20754.04, 28147.48, 22966.86, 18466.12, 28273.39, 0.000, 0.000, 0.000, 14:15:25.272, 1560597325272
22, 28229.09, 27146.10, 28604.67, 20847.83, 28166.04, 23023.84, 18532.39, 28318.27, 0.000, 0.000, 0.000, 14:15:25.272, 1560597325272
23, 28284.77, 27193.09, 28651.56, 20892.20, 28184.74, 23047.96, 18575.51, 28345.70, 0.000, 0.000, 0.000, 14:15:25.272, 1560597325272
24, 28239.84, 27151.20, 28605.96, 20832.50, 28172.27, 23012.80, 18536.86, 28318.01, 0.000, 0.000, 0.000, 14:15:25.272, 1560597325272
25, 28155.96, 27085.26, 28553.03, 20759.54, 28156.89, 22972.74, 18477.72, 28276.39, 0.000, 0.000, 0.000, 14:15:25.272, 1560597325272
26, 28145.76, 27083.25, 28543.94, 20760.86, 28157.61, 22978.38, 18473.29, 28281.26, 0.000, 0.000, 0.000, 14:15:25.273, 1560597325273
27, 28261.79, 27170.67, 28619.42, 20863.14, 28182.40, 23037.56, 18555.95, 28348.36, 0.000, 0.000, 0.000, 14:15:25.273, 1560597325273
28, 28331.71, 27210.50, 28662.91, 20905.25, 28199.72, 23054.95, 18597.05, 28367.74, 0.000, 0.000, 0.000, 14:15:25.273, 1560597325273
29, 28261.50, 27161.35, 28608.47, 20841.26, 28182.73, 23015.99, 18548.37, 28325.54, 0.000, 0.000, 0.000, 14:15:25.273, 1560597325273
30, 28167.18, 27098.18, 28544.92, 20763.94, 28160.89, 22970.11, 18478.34, 28273.66, 0.004, 0.050, -1.030, 14:15:25.273, 1560597325273
31, 28153.21, 27091.56, 28540.34, 20761.10, 28155.29, 22968.07, 18463.79, 28265.50, 0.000, 0.000, 0.000, 14:15:25.273, 1560597325273
32, 28268.34, 27168.86, 28614.79, 20860.99, 28180.65, 23031.97, 18547.46, 28326.50, 0.000, 0.000, 0.000, 14:15:25.273, 1560597325273
33, 28343.15, 27213.94, 28647.31, 20910.08, 28201.82, 23065.19, 18598.53, 28360.99, 0.000, 0.000, 0.000, 14:15:25.274, 1560597325274
34, 28281.57, 27171.54, 28609.32, 20847.47, 28190.04, 23028.38, 18559.21, 28330.41, 0.000, 0.000, 0.000, 14:15:25.274, 1560597325274
35, 28221.60, 27109.38, 28551.11, 20770.71, 28168.43, 22980.30, 18493.45, 28283.34, 0.000, 0.000, 0.000, 14:15:25.274, 1560597325274
36, 28201.96, 27101.89, 28542.39, 20764.39, 28159.78, 22978.15, 18476.46, 28274.38, 0.000, 0.000, 0.000, 14:15:25.274, 1560597325274
37, 28250.70, 27168.19, 28618.41, 20855.29, 28178.22, 23028.58, 18546.43, 28320.55, 0.000, 0.000, 0.000, 14:15:25.274, 1560597325274
38, 28292.55, 27196.62, 28659.12, 20888.02, 28188.57, 23039.39, 18581.41, 28335.22, 0.000, 0.000, 0.000, 14:15:25.274, 1560597325274
39, 28264.18, 27159.25, 28625.01, 20836.16, 28179.87, 23008.51, 18539.18, 28304.59, 0.000, 0.000, 0.000, 14:15:25.274, 1560597325274
40, 28206.00, 27118.88, 28561.91, 20770.89, 28166.66, 22973.14, 18489.61, 28279.40, 0.004, 0.050, -1.030, 14:15:25.274, 1560597325274
41, 28154.50, 27128.04, 28549.88, 20771.92, 28166.66, 22974.84, 18480.73, 28285.71, 0.000, 0.000, 0.000, 14:15:25.274, 1560597325274
42, 28234.19, 27172.41, 28623.89, 20859.45, 28182.89, 23027.28, 18545.26, 28333.25, 0.000, 0.000, 0.000, 14:15:25.274, 1560597325274
43, 28299.79, 27198.92, 28665.42, 20905.05, 28201.42, 23051.60, 18599.20, 28363.09, 0.000, 0.000, 0.000, 14:15:25.275, 1560597325275
44, 28266.55, 27166.80, 28636.58, 20853.48, 28199.21, 23023.99, 18571.55, 28340.09, 0.000, 0.000, 0.000, 14:15:25.275, 1560597325275
45, 28191.61, 27112.40, 28576.93, 20779.59, 28177.97, 22980.48, 18506.53, 28292.68, 0.000, 0.000, 0.000, 14:15:25.275, 1560597325275
46, 28166.64, 27098.23, 28543.13, 20770.63, 28167.82, 22972.85, 18482.23, 28278.93, 0.000, 0.000, 0.000, 14:15:25.275, 1560597325275
47, 28285.68, 27172.81, 28611.33, 20861.13, 28185.95, 23026.86, 18551.43, 28326.37, 0.000, 0.000, 0.000, 14:15:25.275, 1560597325275
48, 28357.90, 27212.76, 28665.06, 20900.24, 28196.21, 23049.23, 18596.63, 28343.08, 0.000, 0.000, 0.000, 14:15:25.275, 1560597325275
49, 28304.04, 27176.10, 28629.70, 20849.95, 28191.52, 23021.29, 18559.17, 28318.16, 0.002, 0.046, -1.024, 14:15:25.275, 1560597325275
50, 28178.33, 27117.72, 28575.03, 20777.85, 28176.00, 22978.06, 18495.80, 28282.06, 0.000, 0.000, 0.000, 14:15:25.275, 1560597325275
51, 28146.97, 27109.36, 28562.89, 20768.21, 28170.01, 22972.90, 18473.16, 28271.78, 0.000, 0.000, 0.000, 14:15:25.275, 1560597325275
52, 28261.66, 27180.10, 28619.13, 20856.75, 28184.36, 23027.30, 18539.54, 28318.01, 0.000, 0.000, 0.000, 14:15:25.275, 1560597325275
53, 28334.48, 27224.13, 28664.55, 20907.17, 28202.29, 23055.24, 18589.74, 28351.82, 0.000, 0.000, 0.000, 14:15:25.276, 1560597325276
54, 28273.55, 27181.04, 28632.92, 20854.27, 28192.75, 23021.42, 18552.84, 28324.67, 0.000, 0.000, 0.000, 14:15:25.276, 1560597325276
55, 28194.87, 27137.14, 28565.39, 20779.70, 28174.91, 22978.78, 18491.96, 28280.61, 0.000, 0.000, 0.000, 14:15:25.276, 1560597325276
56, 28159.35, 27115.21, 28552.79, 20762.06, 28167.82, 22970.69, 18473.34, 28264.12, 0.000, 0.000, 0.000, 14:15:25.276, 1560597325276
57, 28247.26, 27164.39, 28641.44, 20854.24, 28184.83, 23021.71, 18540.88, 28310.41, 0.000, 0.000, 0.000, 14:15:25.276, 1560597325276
58, 28321.36, 27211.59, 28658.00, 20898.84, 28195.96, 23045.68, 18593.12, 28357.57, 0.000, 0.000, 0.000, 14:15:25.276, 1560597325276
59, 28298.40, 27168.68, 28592.31, 20845.68, 28178.89, 23010.07, 18556.51, 28326.19, 0.004, 0.046, -1.030, 14:15:25.276, 1560597325276
60, 28238.28, 27107.41, 28559.07, 20779.03, 28166.42, 22974.82, 18499.09, 28285.44, 0.000, 0.000, 0.000, 14:15:25.276, 1560597325276
61, 28165.16, 27104.57, 28562.82, 20764.12, 28169.77, 22975.22, 18483.84, 28283.96, 0.000, 0.000, 0.000, 14:15:25.276, 1560597325276
62, 28234.52, 27181.93, 28626.86, 20849.68, 28184.56, 23025.11, 18547.50, 28327.28, 0.000, 0.000, 0.000, 14:15:25.276, 1560597325276
63, 28309.56, 27212.15, 28663.09, 20893.98, 28196.12, 23046.97, 18594.62, 28354.48, 0.000, 0.000, 0.000, 14:15:25.277, 1560597325277
64, 28265.81, 27172.37, 28626.08, 20853.48, 28191.27, 23020.13, 18562.59, 28333.43, 0.000, 0.000, 0.000, 14:15:25.277, 1560597325277
65, 28168.38, 27115.26, 28566.62, 20781.60, 28175.09, 22981.26, 18497.83, 28289.62, 0.000, 0.000, 0.000, 14:15:25.277, 1560597325277
66, 28150.84, 27101.40, 28556.72, 20764.37, 28164.78, 22974.53, 18471.23, 28273.82, 0.000, 0.000, 0.000, 14:15:25.277, 1560597325277
67, 28261.54, 27179.01, 28634.51, 20860.70, 28189.04, 23034.66, 18548.95, 28331.71, 0.000, 0.000, 0.000, 14:15:25.277, 1560597325277
68, 28337.05, 27221.92, 28664.84, 20908.07, 28201.89, 23053.77, 18599.60, 28352.94, 0.000, 0.000, 0.000, 14:15:25.277, 1560597325277
69, 28296.26, 27181.15, 28619.35, 20853.26, 28192.81, 23019.52, 18560.98, 28318.97, 0.004, 0.050, -1.030, 14:15:25.277, 1560597325277
70, 28192.54, 27122.03, 28563.99, 20781.40, 28178.40, 22980.52, 18499.46, 28280.07, 0.000, 0.000, 0.000, 14:15:25.277, 1560597325277
71, 28172.34, 27110.77, 28566.24, 20772.91, 28172.16, 22977.73, 18482.88, 28277.17, 0.000, 0.000, 0.000, 14:15:25.277, 1560597325277
72, 28315.17, 27195.72, 28645.12, 20871.25, 28198.54, 23038.63, 18557.89, 28334.52, 0.000, 0.000, 0.000, 14:15:25.277, 1560597325277
73, 28383.23, 27243.15, 28684.06, 20920.76, 28212.28, 23061.37, 18605.66, 28359.65, 0.000, 0.000, 0.000, 14:15:25.278, 1560597325278
74, 28267.09, 27186.45, 28637.37, 20864.15, 28196.57, 23023.99, 18563.77, 28327.04, 0.000, 0.000, 0.000, 14:15:25.278, 1560597325278
75, 28163.67, 27126.84, 28580.21, 20796.26, 28181.28, 22986.35, 18502.97, 28288.97, 0.000, 0.000, 0.000, 14:15:25.278, 1560597325278
76, 28143.39, 27113.65, 28567.72, 20784.48, 28173.63, 22980.97, 18480.73, 28283.09, 0.000, 0.000, 0.000, 14:15:25.278, 1560597325278
77, 28244.20, 27183.88, 28642.11, 20875.21, 28194.56, 23037.07, 18547.54, 28331.39, 0.000, 0.000, 0.000, 14:15:25.278, 1560597325278
78, 28325.54, 27222.17, 28682.07, 20916.63, 28204.62, 23058.13, 18595.71, 28356.88, 0.000, 0.000, 0.000, 14:15:25.278, 1560597325278
79, 28293.13, 27204.51, 28642.08, 20865.06, 28196.66, 23029.43, 18568.13, 28329.79, 0.000, 0.050, -1.030, 14:15:25.279, 1560597325279
80, 28205.93, 27146.04, 28582.16, 20790.16, 28175.02, 22984.39, 18503.76, 28284.54, 0.000, 0.000, 0.000, 14:15:25.279, 1560597325279
81, 28171.51, 27111.59, 28554.75, 20770.54, 28163.51, 22974.75, 18476.98, 28276.99, 0.000, 0.000, 0.000, 14:15:25.279, 1560597325279
82, 28270.80, 27172.08, 28618.12, 20860.75, 28187.36, 23033.56, 18550.49, 28332.80, 0.000, 0.000, 0.000, 14:15:25.279, 1560597325279
83, 28341.45, 27217.54, 28680.37, 20915.44, 28205.42, 23063.65, 18605.72, 28367.00, 0.000, 0.000, 0.000, 14:15:25.279, 1560597325279
84, 28317.22, 27185.93, 28648.88, 20859.85, 28192.57, 23026.88, 18565.76, 28330.41, 0.000, 0.000, 0.000, 14:15:25.280, 1560597325280
85, 28240.20, 27132.85, 28579.43, 20788.42, 28179.80, 22986.33, 18507.82, 28291.68, 0.000, 0.000, 0.000, 14:15:25.280, 1560597325280
86, 28166.79, 27120.78, 28567.90, 20776.08, 28176.47, 22980.30, 18487.80, 28291.52, 0.000, 0.000, 0.000, 14:15:25.280, 1560597325280
87, 28245.54, 27186.58, 28639.02, 20864.93, 28195.25, 23033.16, 18550.18, 28332.82, 0.000, 0.000, 0.000, 14:15:25.280, 1560597325280
88, 28340.07, 27223.28, 28670.13, 20920.85, 28203.90, 23058.13, 18603.38, 28365.99, 0.000, 0.000, 0.000, 14:15:25.280, 1560597325280
89, 28296.57, 27202.16, 28630.37, 20866.43, 28192.05, 23023.59, 18568.17, 28336.00, 0.000, 0.046, -1.030, 14:15:25.745, 1560597325745
90, 28171.78, 27135.55, 28580.19, 20792.22, 28184.16, 22985.95, 18508.96, 28299.99, 0.000, 0.000, 0.000, 14:15:25.746, 1560597325746
91, 28145.27, 27111.79, 28570.51, 20777.38, 28181.21, 22985.82, 18494.53, 28296.30, 0.000, 0.000, 0.000, 14:15:25.747, 1560597325747
92, 28236.42, 27169.39, 28636.58, 20856.57, 28190.94, 23033.83, 18553.27, 28336.74, 0.000, 0.000, 0.000, 14:15:25.747, 1560597325747
93, 28320.51, 27210.19, 28678.07, 20904.83, 28204.97, 23060.25, 18602.46, 28365.05, 0.000, 0.000, 0.000, 14:15:25.747, 1560597325747
94, 28287.41, 27181.53, 28633.03, 20861.53, 28199.18, 23033.56, 18569.47, 28341.07, 0.000, 0.000, 0.000, 14:15:25.747, 1560597325747
95, 28197.71, 27122.52, 28569.31, 20788.93, 28181.99, 22988.95, 18504.18, 28291.88, 0.000, 0.000, 0.000, 14:15:25.748, 1560597325748
96, 28162.93, 27120.29, 28562.24, 20766.69, 28174.48, 22981.84, 18483.84, 28282.51, 0.000, 0.000, 0.000, 14:15:25.748, 1560597325748
97, 28243.24, 27196.28, 28616.78, 20854.27, 28191.63, 23034.79, 18552.93, 28330.90, 0.000, 0.000, 0.000, 14:15:25.748, 1560597325748
98, 28345.90, 27215.35, 28669.58, 20912.94, 28206.76, 23060.92, 18603.51, 28359.63, 0.000, 0.000, 0.000, 14:15:25.749, 1560597325749
99, 28302.52, 27179.90, 28644.83, 20865.69, 28197.95, 23030.92, 18571.66, 28337.38, 0.000, 0.052, -1.032, 14:15:25.749, 1560597325749
100, 28171.54, 27128.83, 28580.33, 20791.21, 28182.87, 22989.95, 18505.79, 28294.33, 0.000, 0.000, 0.000, 14:15:25.749, 1560597325749
101, 28121.20, 27110.45, 28564.21, 20771.79, 28176.85, 22977.14, 18478.97, 28277.10, 0.000, 0.000, 0.000, 14:15:25.749, 1560597325749
102, 28230.43, 27176.66, 28628.76, 20865.46, 28197.13, 23034.81, 18550.63, 28336.45, 0.000, 0.000, 0.000, 14:15:25.750, 1560597325750
103, 28326.66, 27225.61, 28667.70, 20916.18, 28212.39, 23062.06, 18604.70, 28368.16, 0.000, 0.000, 0.000, 14:15:25.750, 1560597325750
104, 28301.58, 27200.55, 28646.80, 20861.80, 28202.04, 23030.74, 18575.86, 28353.81, 0.000, 0.000, 0.000, 14:15:25.750, 1560597325750
105, 28205.35, 27143.06, 28604.38, 20784.73, 28182.49, 22987.70, 18513.10, 28310.09, 0.000, 0.000, 0.000, 14:15:25.750, 1560597325750
106, 28163.04, 27103.68, 28564.99, 20758.94, 28171.22, 22976.18, 18489.43, 28298.27, 0.000, 0.000, 0.000, 14:15:25.751, 1560597325751
107, 28241.05, 27165.82, 28615.39, 20846.13, 28188.10, 23027.17, 18555.26, 28345.34, 0.000, 0.000, 0.000, 14:15:25.751, 1560597325751
108, 28318.68, 27218.14, 28671.74, 20909.99, 28208.32, 23061.17, 18614.40, 28381.60, 0.000, 0.000, 0.000, 14:15:25.751, 1560597325751
109, 28292.59, 27181.22, 28639.42, 20861.08, 28193.66, 23027.10, 18577.05, 28348.83, -0.002, 0.052, -1.036, 14:15:25.751, 1560597325751
110, 28222.00, 27128.80, 28584.28, 20792.98, 28182.08, 22991.72, 18520.79, 28310.76, 0.000, 0.000, 0.000, 14:15:25.752, 1560597325752
111, 28168.61, 27108.71, 28558.89, 20766.78, 28172.21, 22977.62, 18492.47, 28296.14, 0.000, 0.000, 0.000, 14:15:25.752, 1560597325752
112, 28223.77, 27172.93, 28629.97, 20849.75, 28188.66, 23024.29, 18550.47, 28338.28, 0.000, 0.000, 0.000, 14:15:25.752, 1560597325752
113, 28283.14, 27219.37, 28681.04, 20910.12, 28206.80, 23055.13, 18607.56, 28373.24, 0.000, 0.000, 0.000, 14:15:25.752, 1560597325752
114, 28254.86, 27185.49, 28644.12, 20861.13, 28198.20, 23023.79, 18575.10, 28342.64, 0.000, 0.000, 0.000, 14:15:25.752, 1560597325752
115, 28195.99, 27127.04, 28593.60, 20791.23, 28185.91, 22986.55, 18516.36, 28299.07, 0.000, 0.000, 0.000, 14:15:25.752, 1560597325752
116, 28179.76, 27111.10, 28577.29, 20779.72, 28180.88, 22981.84, 18493.70, 28291.03, 0.000, 0.000, 0.000, 14:15:25.753, 1560597325753
117, 28271.74, 27185.35, 28647.92, 20875.03, 28197.31, 23034.90, 18554.72, 28336.87, 0.000, 0.000, 0.000, 14:15:25.753, 1560597325753
118, 28347.96, 27239.64, 28700.29, 20924.96, 28214.25, 23070.67, 18614.33, 28373.13, 0.000, 0.000, 0.000, 14:15:25.753, 1560597325753
119, 28303.86, 27200.80, 28654.78, 20871.41, 28204.23, 23041.72, 18586.75, 28356.18, -0.002, 0.052, -1.036, 14:15:25.754, 1560597325754
120, 28207.83, 27133.74, 28584.04, 20790.79, 28180.07, 22992.14, 18514.64, 28303.30, 0.000, 0.000, 0.000, 14:15:25.754, 1560597325754
121, 28150.08, 27114.25, 28562.09, 20760.97, 28165.19, 22976.54, 18479.68, 28282.98, 0.000, 0.000, 0.000, 14:15:25.754, 1560597325754
122, 28229.49, 27169.60, 28648.28, 20856.21, 28189.19, 23032.60, 18548.28, 28335.08, 0.000, 0.000, 0.000, 14:15:25.754, 1560597325754
123, 28296.30, 27208.62, 28686.05, 20913.90, 28204.97, 23059.36, 18604.79, 28364.72, 0.000, 0.000, 0.000, 14:15:25.754, 1560597325754
124, 28274.62, 27183.77, 28639.24, 20864.86, 28196.23, 23030.48, 18578.57, 28347.31, 0.000, 0.000, 0.000, 14:15:25.754, 1560597325754
125, 28220.66, 27136.38, 28589.69, 20796.11, 28185.33, 22991.85, 18517.82, 28307.34, 0.000, 0.000, 0.000, 14:15:25.754, 1560597325754
126, 28177.84, 27103.72, 28557.24, 20768.26, 28168.85, 22973.53, 18482.63, 28283.61, 0.000, 0.000, 0.000, 14:15:25.755, 1560597325755
127, 28251.80, 27166.91, 28621.79, 20849.55, 28184.83, 23023.82, 18546.22, 28334.05, 0.000, 0.000, 0.000, 14:15:25.755, 1560597325755
128, 28334.63, 27227.53, 28693.58, 20914.79, 28208.59, 23063.89, 18612.86, 28380.81, 0.000, 0.000, 0.000, 14:15:25.755, 1560597325755
129, 28276.99, 27194.27, 28657.91, 20869.87, 28201.73, 23033.23, 18580.67, 28352.43, 0.000, 0.048, -1.038, 14:15:25.755, 1560597325755
130, 28183.00, 27122.52, 28591.70, 20791.01, 28176.94, 22981.15, 18509.77, 28297.84, 0.000, 0.000, 0.000, 14:15:25.756, 1560597325756
131, 28147.46, 27101.51, 28556.52, 20762.78, 28161.77, 22967.91, 18476.26, 28278.51, 0.000, 0.000, 0.000, 14:15:25.756, 1560597325756
132, 28220.48, 27169.42, 28619.08, 20844.21, 28176.12, 23016.95, 18538.63, 28321.49, 0.000, 0.000, 0.000, 14:15:25.756, 1560597325756
133, 28302.78, 27217.07, 28683.28, 20908.25, 28202.04, 23053.48, 18602.44, 28368.01, 0.000, 0.000, 0.000, 14:15:25.756, 1560597325756
134, 28269.39, 27183.43, 28649.30, 20862.76, 28198.13, 23028.76, 18582.55, 28359.83, 0.000, 0.000, 0.000, 14:15:25.756, 1560597325756
135, 28177.53, 27147.94, 28591.08, 20779.50, 28181.03, 22983.70, 18522.40, 28315.03, 0.000, 0.000, 0.000, 14:15:25.756, 1560597325756
136, 28154.50, 27151.74, 28556.70, 20761.33, 28173.26, 22973.88, 18495.91, 28303.30, 0.000, 0.000, 0.000, 14:15:25.757, 1560597325757
137, 28265.43, 27178.56, 28620.87, 20854.04, 28188.54, 23026.83, 18555.46, 28345.19, 0.000, 0.000, 0.000, 14:15:25.757, 1560597325757
138, 28338.75, 27204.40, 28675.05, 20908.63, 28197.78, 23051.76, 18606.96, 28375.11, 0.000, 0.000, 0.000, 14:15:25.757, 1560597325757
139, 28282.58, 27175.00, 28647.89, 20872.62, 28193.82, 23025.67, 18580.96, 28356.38, 0.004, 0.044, -1.040, 14:15:25.757, 1560597325757
140, 28199.05, 27124.60, 28600.49, 20799.13, 28181.59, 22993.11, 18522.02, 28320.62, 0.000, 0.000, 0.000, 14:15:25.757, 1560597325757
141, 28126.99, 27104.87, 28574.20, 20773.33, 28175.69, 22983.27, 18491.24, 28303.72, 0.000, 0.000, 0.000, 14:15:25.758, 1560597325758
142, 28211.57, 27168.68, 28630.44, 20855.38, 28192.10, 23032.58, 18551.19, 28344.67, 0.000, 0.000, 0.000, 14:15:25.758, 1560597325758
143, 28311.59, 27221.38, 28686.88, 20921.99, 28209.55, 23064.23, 18611.76, 28382.65, 0.000, 0.000, 0.000, 14:15:25.758, 1560597325758
144, 28290.85, 27189.62, 28648.88, 20877.00, 28198.04, 23032.11, 18581.83, 28356.25, 0.000, 0.000, 0.000, 14:15:25.759, 1560597325759
145, 28214.52, 27131.46, 28593.83, 20800.51, 28182.69, 22992.72, 18522.13, 28315.99, 0.000, 0.000, 0.000, 14:15:25.759, 1560597325759
146, 28161.54, 27108.55, 28573.78, 20771.50, 28173.46, 22978.53, 18490.17, 28298.04, 0.000, 0.000, 0.000, 14:15:25.759, 1560597325759
147, 28249.47, 27169.37, 28635.18, 20845.88, 28187.58, 23021.27, 18546.67, 28343.11, 0.000, 0.000, 0.000, 14:15:25.760, 1560597325760
148, 28363.04, 27230.84, 28688.28, 20905.68, 28207.43, 23061.48, 18617.06, 28386.22, 0.000, 0.000, 0.000, 14:15:25.761, 1560597325761
149, 28311.34, 27199.23, 28647.13, 20868.95, 28195.41, 23034.99, 18590.46, 28358.17, 0.000, 0.046, -1.034, 14:15:25.761, 1560597325761
150, 28170.33, 27139.78, 28598.01, 20800.67, 28181.08, 22992.08, 18527.83, 28322.97, 0.000, 0.000, 0.000, 14:15:25.761, 1560597325761
151, 28141.49, 27120.82, 28582.61, 20773.73, 28178.02, 22981.68, 18499.46, 28313.15, 0.000, 0.000, 0.000, 14:15:25.761, 1560597325761
152, 28231.32, 27203.03, 28640.45, 20853.55, 28191.99, 23027.66, 18556.95, 28352.27, 0.000, 0.000, 0.000, 14:15:25.761, 1560597325761
153, 28298.85, 27240.09, 28687.88, 20908.09, 28204.66, 23056.70, 18618.53, 28389.51, 0.000, 0.000, 0.000, 14:15:25.762, 1560597325762
154, 28278.80, 27179.25, 28649.55, 20863.19, 28194.53, 23024.40, 18592.87, 28366.80, 0.000, 0.000, 0.000, 14:15:25.763, 1560597325763
155, 28202.76, 27126.12, 28597.25, 20799.79, 28181.26, 22983.74, 18529.62, 28320.08, 0.000, 0.000, 0.000, 14:15:25.765, 1560597325765
156, 28157.54, 27097.44, 28568.70, 20769.75, 28170.30, 22967.60, 18487.78, 28293.46, 0.000, 0.000, 0.000, 14:15:25.766, 1560597325766
157, 28234.34, 27160.07, 28630.71, 20844.30, 28189.30, 23016.80, 18551.77, 28345.45, 0.000, 0.000, 0.000, 14:15:25.766, 1560597325766
158, 28324.58, 27221.67, 28689.54, 20911.29, 28216.73, 23060.05, 18625.44, 28400.71, 0.002, 0.054, -1.034, 14:15:25.767, 1560597325767
159, 28281.68, 27193.87, 28669.33, 20874.90, 28214.56, 23039.08, 18602.15, 28380.19, 0.000, 0.000, 0.000, 14:15:25.767, 1560597325767
160, 28175.29, 27137.99, 28608.47, 20795.48, 28189.30, 22993.37, 18533.87, 28330.52, 0.000, 0.000, 0.000, 14:15:25.768, 1560597325768
161, 28156.25, 27109.60, 28565.53, 20760.84, 28170.48, 22974.60, 18495.24, 28305.78, 0.000, 0.000, 0.000, 14:15:25.769, 1560597325769
162, 28234.77, 27160.61, 28616.00, 20840.03, 28188.66, 23021.13, 18550.47, 28346.95, 0.000, 0.000, 0.000, 14:15:25.769, 1560597325769
163, 28300.17, 27222.99, 28677.27, 20907.57, 28208.86, 23060.09, 18614.93, 28388.88, 0.000, 0.000, 0.000, 14:15:25.769, 1560597325769
164, 28283.70, 27198.50, 28650.60, 20872.04, 28206.80, 23038.46, 18596.61, 28372.45, 0.000, 0.000, 0.000, 14:15:25.769, 1560597325769
165, 28182.98, 27138.46, 28603.88, 20792.46, 28188.72, 22991.29, 18535.56, 28327.73, 0.000, 0.000, 0.000, 14:15:25.769, 1560597325769
166, 28154.90, 27131.64, 28578.47, 20764.86, 28178.98, 22978.53, 18502.88, 28306.52, 0.000, 0.000, 0.000, 14:15:25.769, 1560597325769
167, 28234.07, 27186.63, 28642.91, 20854.15, 28195.52, 23028.62, 18554.09, 28346.10, 0.000, 0.000, 0.000, 14:15:25.770, 1560597325770
168, 28319.35, 27247.02, 28710.44, 20927.51, 28210.05, 23061.61, 18615.25, 28392.55, 0.000, 0.054, -1.036, 14:15:25.771, 1560597325771
169, 28289.91, 27207.28, 28671.41, 20881.20, 28201.62, 23033.88, 18593.32, 28367.80, 0.000, 0.000, 0.000, 14:15:25.771, 1560597325771
170, 28185.21, 27124.15, 28597.29, 20799.82, 28191.09, 22996.68, 18539.14, 28331.46, 0.000, 0.000, 0.000, 14:15:25.771, 1560597325771
171, 28125.29, 27075.07, 28559.07, 20763.27, 28176.23, 22975.54, 18499.62, 28301.51, 0.000, 0.000, 0.000, 14:15:25.771, 1560597325771
172, 28212.28, 27127.22, 28620.94, 20834.98, 28183.85, 23014.85, 18547.50, 28336.11, 0.000, 0.000, 0.000, 14:15:25.771, 1560597325771
173, 28310.99, 27184.82, 28668.84, 20892.82, 28193.86, 23047.08, 18606.40, 28376.19, 0.000, 0.000, 0.000, 14:15:25.771, 1560597325771
174, 28238.14, 27155.11, 28636.00, 20846.15, 28188.46, 23017.69, 18590.59, 28362.35, 0.000, 0.000, 0.000, 14:15:25.773, 1560597325773
175, 28132.55, 27084.17, 28586.67, 20775.50, 28177.70, 22978.51, 18529.62, 28322.23, 0.000, 0.000, 0.000, 14:15:25.773, 1560597325773
176, 28089.57, 27042.28, 28553.59, 20742.82, 28166.53, 22962.08, 18493.83, 28302.31, 0.000, 0.000, 0.000, 14:15:25.774, 1560597325774
177, 28170.71, 27099.28, 28615.75, 20813.59, 28180.99, 23009.64, 18553.71, 28346.26, 0.000, 0.000, 0.000, 14:15:25.774, 1560597325774
178, 28258.75, 27154.04, 28666.18, 20877.45, 28196.68, 23046.46, 18617.28, 28380.70, 0.002, 0.052, -1.034, 14:15:25.774, 1560597325774
179, 28235.24, 27134.37, 28641.48, 20844.23, 28193.82, 23023.37, 18601.37, 28369.15, 0.000, 0.000, 0.000, 14:15:25.775, 1560597325775
180, 28170.42, 27082.98, 28582.61, 20764.44, 28174.73, 22979.65, 18535.83, 28328.73, 0.000, 0.000, 0.000, 14:15:25.775, 1560597325775
181, 28126.23, 27052.67, 28555.89, 20731.40, 28163.29, 22961.90, 18495.35, 28301.64, 0.000, 0.000, 0.000, 14:15:25.775, 1560597325775
182, 28155.33, 27110.63, 28618.35, 20810.23, 28182.40, 23010.20, 18550.12, 28344.49, 0.000, 0.000, 0.000, 14:15:25.775, 1560597325775
183, 28253.30, 27172.08, 28668.79, 20882.65, 28201.35, 23047.80, 18612.99, 28384.10, 0.000, 0.000, 0.000, 14:15:25.776, 1560597325776
184, 28266.57, 27151.06, 28652.81, 20855.67, 28206.00, 23034.54, 18600.54, 28372.88, 0.000, 0.000, 0.000, 14:15:25.777, 1560597325777
185, 28161.10, 27081.08, 28593.31, 20773.08, 28186.64, 22991.94, 18534.02, 28327.35, 0.000, 0.000, 0.000, 14:15:25.777, 1560597325777
186, 28101.46, 27036.54, 28551.27, 20732.83, 28163.40, 22966.51, 18486.81, 28302.07, 0.000, 0.000, 0.000, 14:15:25.777, 1560597325777
187, 28177.93, 27091.61, 28601.20, 20816.13, 28179.67, 23013.94, 18536.41, 28339.80, 0.000, 0.000, 0.000, 14:15:25.777, 1560597325777
188, 28251.53, 27152.07, 28670.20, 20884.71, 28200.37, 23053.79, 18604.03, 28383.72, 0.000, 0.046, -1.030, 14:15:25.777, 1560597325777
189, 28215.81, 27126.84, 28651.43, 20846.94, 28198.27, 23031.26, 18586.55, 28365.62, 0.000, 0.000, 0.000, 14:15:25.777, 1560597325777
190, 28145.25, 27076.52, 28598.45, 20774.02, 28183.38, 22990.09, 18528.57, 28323.15, 0.000, 0.000, 0.000, 14:15:25.778, 1560597325778
191, 28122.23, 27049.43, 28569.42, 20737.63, 28168.12, 22968.00, 18490.66, 28297.71, 0.000, 0.000, 0.000, 14:15:25.778, 1560597325778
192, 28227.19, 27109.74, 28628.52, 20819.29, 28185.19, 23016.66, 18548.88, 28351.46, 0.000, 0.000, 0.000, 14:15:25.779, 1560597325779
193, 28292.37, 27177.55, 28665.20, 20882.47, 28199.88, 23048.40, 18601.86, 28380.37, 0.000, 0.000, 0.000, 14:15:25.779, 1560597325779
194, 28245.12, 27142.15, 28650.98, 20847.94, 28200.46, 23029.31, 18585.05, 28363.94, 0.000, 0.000, 0.000, 14:15:25.780, 1560597325780
195, 28150.50, 27085.46, 28600.20, 20783.81, 28194.60, 22997.60, 18528.28, 28324.04, 0.000, 0.000, 0.000, 14:15:25.780, 1560597325780
196, 28099.07, 27055.80, 28579.12, 20750.33, 28181.37, 22977.17, 18491.96, 28310.36, 0.000, 0.000, 0.000, 14:15:25.780, 1560597325780
197, 28198.02, 27121.29, 28631.94, 20817.01, 28189.55, 23017.87, 18538.20, 28345.25, 0.000, 0.000, 0.000, 14:15:25.780, 1560597325780
198, 28285.33, 27202.21, 28687.19, 20891.08, 28210.27, 23058.60, 18604.18, 28384.14, -0.002, 0.052, -1.028, 14:15:25.780, 1560597325780
199, 28240.22, 27163.72, 28673.33, 20862.92, 28211.43, 23039.48, 18588.22, 28367.13, 0.000, 0.000, 0.000, 14:15:25.780, 1560597325780
200, 28169.54, 27085.91, 28602.72, 20788.62, 28189.35, 22993.95, 18524.75, 28319.06, 0.000, 0.000, 0.000, 14:15:25.780, 1560597325780
201, 28123.84, 27051.49, 28553.30, 20742.26, 28166.04, 22963.55, 18476.67, 28280.28, 0.000, 0.000, 0.000, 14:15:25.781, 1560597325781
202, 28213.67, 27120.46, 28630.15, 20827.04, 28182.51, 23011.72, 18530.49, 28323.82, 0.000, 0.000, 0.000, 14:15:25.782, 1560597325782
203, 28287.67, 27184.84, 28703.71, 20904.45, 28209.96, 23055.96, 18605.95, 28384.10, 0.000, 0.000, 0.000, 14:15:25.782, 1560597325782
204, 28263.53, 27172.66, 28670.16, 20860.12, 28205.64, 23031.21, 18583.49, 28360.03, 0.000, 0.000, 0.000, 14:15:25.782, 1560597325782
205, 28201.57, 27106.47, 28607.37, 20785.22, 28183.63, 22983.81, 18516.18, 28309.47, 0.000, 0.000, 0.000, 14:15:25.782, 1560597325782
206, 28122.27, 27064.14, 28578.87, 20753.24, 28173.37, 22963.60, 18476.67, 28279.96, 0.000, 0.000, 0.000, 14:15:25.782, 1560597325782
207, 28181.64, 27109.38, 28637.63, 20821.01, 28177.73, 23002.02, 18519.60, 28312.73, 0.000, 0.000, 0.000, 14:15:25.782, 1560597325782
208, 28314.76, 27178.65, 28679.81, 20899.35, 28195.96, 23045.79, 18589.61, 28360.23, 0.000, 0.050, -1.024, 14:15:25.782, 1560597325782
209, 28272.52, 27170.98, 28659.38, 20867.45, 28194.98, 23029.98, 18575.73, 28346.91, 0.000, 0.000, 0.000, 14:15:26.221, 1560597326221
210, 28152.15, 27104.44, 28604.49, 20787.14, 28175.29, 22983.70, 18508.63, 28297.58, 0.000, 0.000, 0.000, 14:15:26.222, 1560597326222
211, 28112.06, 27060.34, 28559.92, 20740.45, 28160.43, 22956.87, 18465.96, 28275.87, 0.000, 0.000, 0.000, 14:15:26.222, 1560597326222
212, 28222.99, 27122.12, 28621.45, 20814.86, 28176.43, 23000.30, 18516.81, 28314.61, 0.000, 0.000, 0.000, 14:15:26.222, 1560597326222
213, 28307.90, 27194.05, 28691.73, 20895.82, 28202.67, 23043.55, 18588.29, 28360.81, 0.000, 0.000, 0.000, 14:15:26.222, 1560597326222
214, 28254.12, 27171.14, 28657.35, 20859.12, 28192.54, 23020.89, 18569.13, 28347.44, 0.000, 0.000, 0.000, 14:15:26.222, 1560597326222
215, 28162.13, 27103.52, 28600.71, 20783.39, 28175.18, 22978.58, 18507.65, 28307.77, 0.000, 0.000, 0.000, 14:15:26.222, 1560597326222
216, 28102.15, 27059.45, 28573.60, 20745.39, 28169.10, 22962.97, 18471.68, 28289.78, 0.000, 0.000, 0.000, 14:15:26.222, 1560597326222
217, 28179.87, 27115.86, 28633.68, 20823.69, 28185.68, 23013.09, 18523.09, 28331.08, 0.000, 0.000, 0.000, 14:15:26.222, 1560597326222
218, 28296.46, 27182.07, 28698.61, 20903.82, 28206.76, 23057.86, 18594.93, 28382.31, -0.002, 0.050, -1.032, 14:15:26.222, 1560597326222
219, 28273.77, 27165.48, 28660.50, 20862.25, 28196.30, 23031.44, 18577.43, 28363.65, 0.000, 0.000, 0.000, 14:15:26.222, 1560597326222
220, 28165.43, 27101.73, 28597.04, 20783.39, 28179.16, 22986.98, 18518.49, 28324.44, 0.000, 0.000, 0.000, 14:15:26.223, 1560597326223
221, 28129.76, 27065.57, 28565.73, 20741.52, 28169.99, 22966.19, 18477.81, 28298.63, 0.000, 0.000, 0.000, 14:15:26.223, 1560597326223
222, 28197.28, 27105.83, 28621.54, 20806.08, 28184.79, 23003.25, 18523.87, 28332.11, 0.000, 0.000, 0.000, 14:15:26.223, 1560597326223
223, 28266.42, 27174.27, 28691.77, 20883.26, 28208.01, 23047.96, 18593.88, 28372.83, 0.000, 0.000, 0.000, 14:15:26.223, 1560597326223
224, 28244.42, 27169.01, 28674.52, 20863.86, 28208.82, 23034.14, 18583.78, 28365.55, 0.000, 0.000, 0.000, 14:15:26.223, 1560597326223
225, 28159.82, 27103.90, 28613.63, 20788.11, 28187.85, 22984.54, 18522.33, 28331.73, 0.000, 0.000, 0.000, 14:15:26.223, 1560597326223
226, 28106.49, 27054.51, 28576.10, 20741.70, 28173.23, 22963.76, 18477.25, 28301.87, 0.000, 0.000, 0.000, 14:15:26.223, 1560597326223
227, 28197.91, 27103.86, 28626.06, 20816.60, 28188.70, 23009.38, 18525.04, 28335.55, 0.000, 0.000, 0.000, 14:15:26.224, 1560597326224
228, 28273.32, 27164.32, 28687.01, 20892.89, 28207.90, 23049.99, 18597.75, 28381.80, 0.004, 0.048, -1.030, 14:15:26.224, 1560597326224
229, 28257.48, 27150.10, 28671.59, 20862.36, 28208.86, 23032.20, 18586.53, 28365.70, 0.000, 0.000, 0.000, 14:15:26.224, 1560597326224
230, 28171.13, 27095.95, 28603.26, 20786.09, 28187.07, 22986.62, 18519.40, 28318.88, 0.000, 0.000, 0.000, 14:15:26.224, 1560597326224
231, 28130.29, 27063.04, 28560.07, 20736.88, 28165.90, 22956.25, 18468.31, 28285.17, 0.000, 0.000, 0.000, 14:15:26.224, 1560597326224
232, 28229.11, 27119.39, 28617.52, 20808.22, 28184.32, 23004.55, 18520.99, 28331.39, 0.000, 0.000, 0.000, 14:15:26.224, 1560597326224
233, 28312.57, 27185.00, 28694.32, 20894.70, 28214.76, 23055.58, 18601.54, 28384.30, 0.000, 0.000, 0.000, 14:15:26.224, 1560597326224
234, 28262.95, 27163.20, 28682.83, 20865.89, 28210.87, 23037.23, 18591.60, 28375.79, 0.000, 0.000, 0.000, 14:15:26.224, 1560597326224
235, 28166.86, 27102.79, 28633.77, 20796.31, 28192.23, 22997.33, 18533.78, 28336.60, 0.000, 0.000, 0.000, 14:15:26.224, 1560597326224
236, 28136.02, 27068.52, 28578.02, 20758.78, 28171.71, 22972.92, 18485.16, 28302.00, 0.000, 0.000, 0.000, 14:15:26.224, 1560597326224
237, 28202.78, 27127.55, 28613.21, 20824.02, 28176.29, 23006.90, 18520.88, 28330.41, 0.000, 0.000, 0.000, 14:15:26.225, 1560597326225
238, 28265.21, 27201.71, 28683.52, 20893.47, 28191.88, 23038.48, 18580.04, 28361.86, -0.002, 0.048, -1.028, 14:15:26.225, 1560597326225
239, 28237.96, 27159.38, 28679.95, 20857.13, 28198.24, 23022.92, 18576.06, 28358.24, 0.000, 0.000, 0.000, 14:15:26.225, 1560597326225
240, 28168.74, 27069.01, 28618.46, 20773.98, 28182.71, 22978.93, 18520.52, 28320.46, 0.000, 0.000, 0.000, 14:15:26.225, 1560597326225
241, 28126.85, 27033.52, 28577.11, 20733.01, 28172.36, 22961.90, 18488.60, 28304.77, 0.000, 0.000, 0.000, 14:15:26.225, 1560597326225
242, 28183.40, 27092.19, 28618.72, 20803.24, 28182.71, 23002.04, 18532.37, 28339.06, 0.000, 0.000, 0.000, 14:15:26.225, 1560597326225
243, 28294.07, 27159.92, 28679.97, 20884.71, 28201.24, 23047.69, 18603.98, 28387.68, 0.000, 0.000, 0.000, 14:15:26.225, 1560597326225
244, 28262.48, 27126.57, 28643.67, 20848.88, 28196.41, 23025.56, 18594.28, 28380.90, 0.000, 0.000, 0.000, 14:15:26.226, 1560597326226
245, 28167.96, 27073.68, 28603.50, 20782.88, 28185.44, 22984.25, 18532.43, 28330.95, 0.000, 0.000, 0.000, 14:15:26.226, 1560597326226
246, 28085.17, 27032.67, 28573.91, 20735.47, 28166.35, 22956.00, 18479.26, 28295.97, 0.000, 0.000, 0.000, 14:15:26.226, 1560597326226
247, 28129.87, 27082.80, 28625.56, 20796.69, 28175.40, 22997.22, 18522.35, 28327.86, 0.000, 0.000, 0.000, 14:15:26.226, 1560597326226
248, 28262.28, 27153.86, 28680.15, 20882.70, 28197.89, 23048.40, 18593.90, 28377.24, 0.000, 0.052, -1.042, 14:15:26.226, 1560597326226
249, 28267.45, 27139.78, 28673.73, 20852.81, 28194.11, 23026.81, 18581.43, 28363.71, 0.000, 0.000, 0.000, 14:15:26.226, 1560597326226
250, 28155.73, 27095.54, 28603.46, 20770.18, 28174.69, 22977.91, 18517.66, 28313.09, 0.000, 0.000, 0.000, 14:15:26.226, 1560597326226
251, 28102.80, 27042.62, 28570.20, 20731.00, 28161.90, 22954.84, 18473.94, 28284.63, 0.000, 0.000, 0.000, 14:15:26.226, 1560597326226
252, 28215.59, 27088.73, 28611.33, 20793.74, 28176.32, 22995.90, 18517.21, 28319.77, 0.000, 0.000, 0.000, 14:15:26.226, 1560597326226
253, 28314.16, 27152.34, 28670.43, 20884.69, 28202.07, 23048.58, 18593.37, 28372.81, 0.000, 0.000, 0.000, 14:15:26.226, 1560597326226
254, 28250.73, 27128.54, 28659.05, 20854.13, 28197.11, 23025.80, 18580.36, 28359.87, 0.000, 0.000, 0.000, 14:15:26.226, 1560597326226
255, 28141.98, 27080.05, 28618.14, 20785.29, 28185.30, 22985.24, 18526.89, 28322.95, 0.000, 0.000, 0.000, 14:15:26.227, 1560597326227
0, 28080.23, 27045.45, 28599.64, 20737.59, 28175.18, 22963.44, 18488.98, 28308.64, 0.000, 0.000, 0.000, 14:15:26.227, 1560597326227
1, 28156.78, 27077.37, 28629.54, 20793.22, 28183.94, 22996.72, 18527.76, 28339.46, 0.000, 0.000, 0.000, 14:15:26.227, 1560597326227
2, 28264.54, 27142.24, 28691.39, 20874.99, 28205.87, 23041.23, 18601.66, 28383.50, 0.000, 0.048, -1.044, 14:15:26.227, 1560597326227
3, 28255.20, 27135.89, 28676.79, 20854.24, 28205.46, 23023.71, 18591.58, 28370.98, 0.000, 0.000, 0.000, 14:15:26.227, 1560597326227
4, 28179.65, 27080.63, 28606.12, 20776.77, 28183.16, 22979.98, 18525.21, 28329.07, 0.000, 0.000, 0.000, 14:15:26.228, 1560597326228
5, 28126.54, 27049.52, 28571.03, 20739.36, 28171.11, 22958.77, 18480.33, 28302.25, 0.000, 0.000, 0.000, 14:15:26.228, 1560597326228
6, 28225.74, 27108.80, 28625.59, 20799.62, 28182.26, 22996.64, 18517.62, 28329.29, 0.000, 0.000, 0.000, 14:15:26.228, 1560597326228
7, 28293.91, 27164.54, 28690.79, 20884.71, 28209.64, 23047.73, 18593.21, 28385.15, 0.000, 0.000, 0.000, 14:15:26.228, 1560597326228
8, 28248.16, 27148.09, 28686.88, 20863.36, 28206.52, 23031.66, 18581.23, 28365.77, 0.000, 0.000, 0.000, 14:15:26.229, 1560597326229
9, 28149.00, 27079.56, 28631.60, 20775.34, 28182.60, 22979.27, 18509.39, 28311.70, 0.000, 0.000, 0.000, 14:15:26.229, 1560597326229
10, 28096.14, 27035.73, 28586.85, 20729.01, 28171.11, 22954.44, 18467.55, 28288.93, 0.000, 0.000, 0.000, 14:15:26.229, 1560597326229
11, 28159.80, 27085.53, 28641.59, 20798.95, 28189.86, 22999.34, 18514.49, 28328.58, 0.004, 0.054, -1.036, 14:15:26.229, 1560597326229
12, 28278.78, 27151.76, 28699.30, 20885.38, 28211.83, 23047.17, 18586.57, 28374.62, 0.000, 0.000, 0.000, 14:15:26.229, 1560597326229
13, 28267.33, 27136.76, 28672.77, 20859.38, 28203.27, 23028.31, 18579.91, 28365.05, 0.000, 0.000, 0.000, 14:15:26.229, 1560597326229
14, 28185.33, 27081.57, 28620.31, 20780.55, 28185.06, 22981.46, 18521.73, 28318.79, 0.000, 0.000, 0.000, 14:15:26.230, 1560597326230
15, 28119.07, 27037.68, 28572.21, 20733.10, 28167.29, 22951.64, 18475.57, 28291.27, 0.000, 0.000, 0.000, 14:15:26.230, 1560597326230
16, 28170.73, 27079.96, 28609.38, 20795.64, 28171.80, 22983.61, 18511.96, 28318.27, 0.000, 0.000, 0.000, 14:15:26.230, 1560597326230
17, 28260.96, 27154.20, 28694.68, 20885.40, 28200.41, 23037.16, 18591.69, 28377.62, 0.000, 0.000, 0.000, 14:15:26.230, 1560597326230
18, 28276.83, 27156.52, 28685.60, 20858.13, 28197.71, 23023.77, 18583.57, 28366.17, 0.000, 0.000, 0.000, 14:15:26.231, 1560597326231
19, 28200.95, 27091.45, 28620.07, 20779.50, 28178.80, 22979.34, 18519.29, 28316.48, 0.000, 0.000, 0.000, 14:15:26.231, 1560597326231
20, 28110.98, 27046.93, 28575.77, 20727.96, 28161.95, 22952.31, 18467.99, 28289.10, 0.000, 0.000, 0.000, 14:15:26.231, 1560597326231
21, 28151.26, 27078.11, 28622.39, 20792.44, 28176.99, 22987.85, 18502.55, 28319.37, 0.000, 0.056, -1.036, 14:15:26.231, 1560597326231
22, 28275.76, 27146.77, 28686.09, 20877.85, 28204.10, 23041.32, 18576.82, 28371.69, 0.000, 0.000, 0.000, 14:15:26.231, 1560597326231
23, 28281.79, 27133.97, 28682.56, 20859.18, 28202.22, 23026.95, 18569.11, 28357.21, 0.000, 0.000, 0.000, 14:15:26.231, 1560597326231
24, 28177.48, 27080.43, 28629.03, 20786.21, 28187.92, 22983.72, 18512.41, 28316.66, 0.000, 0.000, 0.000, 14:15:26.231, 1560597326231
25, 28108.41, 27044.63, 28587.05, 20737.79, 28170.77, 22955.11, 18462.83, 28281.10, 0.000, 0.000, 0.000, 14:15:26.232, 1560597326232
26, 28178.71, 27096.88, 28628.81, 20797.00, 28176.59, 22986.62, 18499.11, 28314.09, 0.000, 0.000, 0.000, 14:15:26.232, 1560597326232
27, 28309.89, 27175.85, 28686.85, 20878.38, 28200.59, 23033.70, 18574.16, 28365.28, 0.000, 0.000, 0.000, 14:15:26.232, 1560597326232
28, 28265.54, 27175.14, 28677.27, 20852.03, 28203.45, 23022.50, 18567.15, 28355.11, 0.000, 0.000, 0.000, 14:15:26.232, 1560597326232
29, 28153.68, 27084.57, 28630.57, 20782.90, 28189.39, 22982.60, 18511.00, 28320.35, 0.000, 0.000, 0.000, 14:15:26.232, 1560597326232
30, 28082.87, 27016.71, 28590.96, 20739.09, 28174.73, 22954.28, 18460.89, 28283.52, 0.000, 0.000, 0.000, 14:15:26.232, 1560597326232
31, 28154.61, 27059.87, 28624.51, 20791.95, 28182.71, 22987.94, 18494.71, 28307.07, 0.004, 0.050, -1.038, 14:15:26.233, 1560597326233
32, 28257.66, 27132.60, 28686.65, 20871.79, 28200.21, 23031.86, 18567.88, 28356.74, 0.000, 0.000, 0.000, 14:15:26.233, 1560597326233
33, 28258.95, 27130.37, 28675.12, 20859.07, 28204.73, 23021.16, 18565.54, 28354.71, 0.000, 0.000, 0.000, 14:15:26.233, 1560597326233
34, 28185.95, 27075.70, 28623.69, 20787.88, 28189.21, 22978.87, 18509.03, 28317.71, 0.000, 0.000, 0.000, 14:15:26.233, 1560597326233
35, 28137.92, 27038.50, 28577.67, 20738.84, 28162.13, 22943.26, 18452.26, 28278.11, 0.000, 0.000, 0.000, 14:15:26.233, 1560597326233
36, 28176.36, 27094.07, 28624.54, 20798.16, 28176.23, 22980.70, 18491.78, 28310.23, 0.000, 0.000, 0.000, 14:15:26.233, 1560597326233
37, 28245.54, 27161.24, 28702.23, 20877.22, 28209.09, 23041.99, 18578.61, 28373.53, 0.000, 0.000, 0.000, 14:15:26.234, 1560597326234
38, 28238.50, 27138.62, 28696.71, 20862.34, 28210.83, 23034.34, 18578.88, 28371.94, 0.000, 0.000, 0.000, 14:15:26.234, 1560597326234
39, 28168.85, 27091.50, 28634.53, 20788.89, 28187.11, 22988.19, 18519.13, 28330.86, 0.000, 0.000, 0.000, 14:15:26.234, 1560597326234
40, 28153.21, 27050.82, 28586.52, 20746.42, 28178.98, 22965.99, 18475.82, 28301.76, 0.000, 0.000, 0.000, 14:15:26.234, 1560597326234
41, 28204.91, 27091.72, 28630.08, 20796.24, 28188.68, 22999.52, 18507.56, 28327.13, 0.006, 0.058, -1.036, 14:15:26.234, 1560597326234
42, 28293.35, 27155.42, 28698.30, 20881.58, 28208.95, 23044.13, 18583.08, 28376.54, 0.000, 0.000, 0.000, 14:15:26.234, 1560597326234
43, 28291.41, 27135.71, 28683.30, 20866.27, 28207.34, 23027.62, 18578.97, 28370.31, 0.000, 0.000, 0.000, 14:15:26.234, 1560597326234
44, 28165.90, 27090.85, 28625.43, 20801.00, 28189.75, 22989.04, 18527.16, 28334.43, 0.000, 0.000, 0.000, 14:15:26.234, 1560597326234
45, 28066.03, 27040.27, 28571.92, 20741.77, 28162.26, 22953.18, 18469.92, 28300.68, 0.000, 0.000, 0.000, 14:15:26.234, 1560597326234
46, 28138.07, 27078.51, 28616.56, 20792.40, 28170.60, 22984.48, 18502.93, 28328.40, 0.000, 0.000, 0.000, 14:15:26.237, 1560597326237
47, 28251.29, 27156.07, 28703.46, 20880.15, 28196.41, 23036.22, 18581.29, 28379.43, 0.000, 0.000, 0.000, 14:15:26.237, 1560597326237
48, 28274.78, 27140.36, 28690.43, 20856.99, 28190.76, 23020.31, 18575.28, 28369.82, 0.000, 0.000, 0.000, 14:15:26.238, 1560597326238
49, 28201.40, 27089.33, 28623.22, 20787.81, 28176.00, 22977.68, 18516.99, 28322.43, 0.000, 0.000, 0.000, 14:15:26.238, 1560597326238
50, 28130.96, 27056.47, 28588.84, 20742.96, 28167.98, 22954.77, 18471.91, 28298.40, 0.000, 0.000, 0.000, 14:15:26.238, 1560597326238
51, 28163.71, 27095.74, 28624.18, 20791.32, 28177.66, 22984.68, 18499.11, 28324.38, 0.006, 0.060, -1.040, 14:15:26.238, 1560597326238
52, 28272.56, 27172.03, 28702.39, 20880.51, 28203.59, 23034.16, 18576.31, 28373.26, 0.000, 0.000, 0.000, 14:15:26.238, 1560597326238
53, 28311.39, 27158.89, 28692.46, 20865.89, 28198.31, 23021.85, 18574.99, 28367.18, 0.000, 0.000, 0.000, 14:15:26.238, 1560597326238
54, 28210.67, 27101.85, 28624.25, 20788.80, 28171.74, 22969.84, 18503.18, 28313.11, 0.000, 0.000, 0.000, 14:15:26.238, 1560597326238
55, 28118.25, 27053.16, 28578.11, 20739.87, 28160.16, 22939.26, 18457.15, 28281.46, 0.000, 0.000, 0.000, 14:15:26.239, 1560597326239
56, 28149.03, 27097.38, 28620.29, 20788.75, 28173.03, 22979.85, 18502.17, 28324.76, 0.000, 0.000, 0.000, 14:15:26.239, 1560597326239
57, 28264.58, 27167.18, 28706.37, 20886.54, 28207.74, 23042.48, 18592.09, 28387.18, 0.000, 0.000, 0.000, 14:15:26.239, 1560597326239
58, 28265.43, 27152.88, 28694.99, 20872.53, 28204.79, 23030.43, 18586.08, 28374.62, 0.000, 0.000, 0.000, 14:15:26.239, 1560597326239
59, 28197.80, 27097.24, 28631.22, 20798.88, 28184.25, 22984.32, 18525.33, 28329.81, 0.000, 0.000, 0.000, 14:15:26.240, 1560597326240
60, 28134.32, 27063.47, 28584.28, 20754.00, 28169.59, 22960.83, 18478.16, 28304.86, 0.000, 0.000, 0.000, 14:15:26.240, 1560597326240
61, 28183.38, 27106.63, 28615.69, 20810.59, 28176.16, 22996.48, 18511.22, 28333.63, 0.004, 0.058, -1.042, 14:15:26.240, 1560597326240
62, 28285.95, 27183.21, 28691.50, 20900.74, 28199.32, 23048.96, 18588.22, 28384.99, 0.000, 0.000, 0.000, 14:15:26.240, 1560597326240
63, 28275.94, 27172.86, 28682.16, 20881.92, 28196.52, 23034.95, 18584.16, 28372.83, 0.000, 0.000, 0.000, 14:15:26.240, 1560597326240
64, 28180.99, 27115.35, 28619.84, 20815.29, 28182.71, 22993.06, 18524.37, 28328.46, 0.000, 0.000, 0.000, 14:15:26.240, 1560597326240
65, 28123.95, 27080.63, 28575.72, 20766.74, 28170.26, 22963.29, 18475.24, 28304.04, 0.000, 0.000, 0.000, 14:15:26.240, 1560597326240
66, 28173.46, 27121.09, 28619.49, 20816.09, 28182.26, 22998.33, 18507.31, 28334.17, 0.000, 0.000, 0.000, 14:15:26.241, 1560597326241
67, 28270.75, 27200.75, 28696.76, 20907.80, 28208.48, 23054.57, 18586.21, 28386.00, 0.000, 0.000, 0.000, 14:15:26.241, 1560597326241
68, 28265.54, 27188.73, 28695.91, 20891.46, 28209.31, 23042.08, 18590.62, 28380.01, 0.000, 0.000, 0.000, 14:15:26.241, 1560597326241
69, 28187.25, 27116.22, 28643.25, 20825.07, 28192.54, 22998.11, 18537.80, 28340.98, 0.000, 0.000, 0.000, 14:15:26.241, 1560597326241
70, 28113.08, 27066.96, 28590.90, 20770.71, 28172.65, 22967.22, 18487.24, 28301.91, 0.000, 0.000, 0.000, 14:15:26.241, 1560597326241
71, 28176.81, 27112.55, 28628.31, 20821.05, 28183.87, 23003.50, 18518.53, 28329.56, 0.004, 0.058, -1.034, 14:15:26.241, 1560597326241
72, 28304.82, 27190.65, 28693.47, 20912.20, 28207.54, 23055.87, 18600.54, 28392.97, 0.000, 0.000, 0.000, 14:15:26.241, 1560597326241
73, 28298.54, 27186.07, 28673.89, 20897.85, 28204.57, 23040.31, 18602.22, 28383.43, 0.000, 0.000, 0.000, 14:15:26.702, 1560597326702
74, 28205.42, 27126.84, 28631.69, 20826.68, 28190.55, 22994.74, 18541.69, 28338.10, 0.000, 0.000, 0.000, 14:15:26.702, 1560597326702
75, 28158.44, 27081.62, 28601.04, 20770.31, 28180.72, 22964.63, 18488.87, 28305.80, 0.000, 0.000, 0.000, 14:15:26.702, 1560597326702
76, 28172.09, 27117.72, 28630.04, 20804.18, 28180.79, 22988.95, 18509.41, 28322.92, 0.000, 0.000, 0.000, 14:15:26.702, 1560597326702
77, 28270.66, 27192.06, 28716.54, 20907.26, 28211.95, 23044.60, 18588.78, 28380.77, 0.000, 0.000, 0.000, 14:15:26.702, 1560597326702
78, 28273.82, 27188.46, 28713.23, 20905.34, 28214.49, 23036.62, 18593.16, 28379.79, 0.000, 0.000, 0.000, 14:15:26.702, 1560597326702
79, 28190.15, 27147.22, 28654.22, 20834.57, 28198.80, 22998.60, 18535.12, 28335.60, 0.000, 0.000, 0.000, 14:15:26.702, 1560597326702
80, 28129.02, 27115.71, 28606.14, 20777.71, 28185.59, 22974.75, 18482.63, 28307.10, 0.000, 0.000, 0.000, 14:15:26.703, 1560597326703
81, 28173.66, 27126.66, 28630.84, 20826.64, 28191.27, 23003.43, 18506.46, 28328.13, 0.004, 0.054, -1.038, 14:15:26.703, 1560597326703
82, 28306.49, 27184.55, 28704.36, 20920.14, 28216.17, 23057.48, 18587.33, 28384.86, 0.000, 0.000, 0.000, 14:15:26.703, 1560597326703
83, 28309.11, 27181.04, 28700.94, 20904.49, 28217.67, 23048.18, 18589.01, 28384.14, 0.000, 0.000, 0.000, 14:15:26.703, 1560597326703
84, 28217.31, 27129.56, 28642.82, 20829.57, 28199.99, 23004.77, 18530.11, 28339.98, 0.000, 0.000, 0.000, 14:15:26.703, 1560597326703
85, 28141.09, 27088.44, 28596.66, 20774.40, 28181.82, 22975.51, 18472.78, 28300.41, 0.000, 0.000, 0.000, 14:15:26.704, 1560597326704
86, 28178.55, 27122.52, 28630.86, 20826.08, 28189.21, 23008.62, 18499.22, 28326.57, 0.000, 0.000, 0.000, 14:15:26.704, 1560597326704
87, 28297.38, 27200.42, 28711.80, 20923.09, 28218.25, 23068.32, 18587.58, 28391.50, 0.000, 0.000, 0.000, 14:15:26.704, 1560597326704
88, 28297.33, 27200.48, 28702.03, 20908.40, 28215.03, 23056.85, 18588.98, 28383.54, 0.000, 0.000, 0.000, 14:15:26.704, 1560597326704
89, 28208.37, 27146.17, 28653.55, 20835.80, 28199.56, 23013.78, 18525.93, 28337.59, 0.000, 0.000, 0.000, 14:15:26.704, 1560597326704
90, 28133.09, 27110.38, 28605.90, 20780.06, 28185.35, 22982.71, 18478.43, 28303.70, 0.000, 0.000, 0.000, 14:15:26.704, 1560597326704
91, 28176.32, 27152.16, 28640.61, 20822.64, 28190.29, 23008.51, 18504.47, 28330.66, 0.002, 0.050, -1.034, 14:15:26.704, 1560597326704
92, 28301.13, 27200.73, 28707.08, 20921.32, 28214.56, 23061.03, 18585.74, 28386.96, 0.000, 0.000, 0.000, 14:15:26.704, 1560597326704
93, 28312.24, 27193.56, 28695.06, 20905.43, 28209.31, 23046.03, 18582.77, 28373.04, 0.000, 0.000, 0.000, 14:15:26.704, 1560597326704
94, 28211.68, 27124.65, 28645.79, 20832.45, 28193.17, 23002.96, 18522.13, 28327.55, 0.000, 0.000, 0.000, 14:15:26.705, 1560597326705
95, 28107.21, 27069.82, 28612.58, 20775.48, 28183.60, 22974.78, 18473.45, 28297.93, 0.000, 0.000, 0.000, 14:15:26.705, 1560597326705
96, 28150.26, 27101.24, 28632.54, 20808.65, 28185.46, 22997.29, 18493.45, 28316.75, 0.000, 0.000, 0.000, 14:15:26.705, 1560597326705
97, 28292.90, 27184.19, 28706.46, 20905.99, 28210.07, 23053.66, 18574.48, 28372.25, 0.000, 0.000, 0.000, 14:15:26.705, 1560597326705
98, 28284.25, 27197.78, 28702.25, 20901.36, 28211.12, 23047.75, 18586.91, 28377.35, 0.000, 0.000, 0.000, 14:15:26.705, 1560597326705
99, 28203.74, 27149.21, 28652.28, 20831.24, 28196.23, 23005.82, 18534.22, 28338.90, 0.000, 0.000, 0.000, 14:15:26.705, 1560597326705
100, 28123.77, 27087.29, 28604.51, 20770.00, 28177.75, 22972.63, 18479.55, 28303.83, 0.000, 0.000, 0.000, 14:15:26.705, 1560597326705
101, 28180.10, 27112.53, 28618.32, 20807.17, 28180.25, 22997.62, 18502.13, 28323.66, -0.002, 0.054, -1.036, 14:15:26.705, 1560597326705
102, 28291.56, 27196.17, 28691.08, 20891.24, 28199.59, 23047.51, 18581.88, 28374.55, 0.000, 0.000, 0.000, 14:15:26.705, 1560597326705
103, 28273.39, 27191.90, 28697.76, 20888.89, 28200.14, 23036.62, 18587.40, 28370.64, 0.000, 0.000, 0.000, 14:15:26.706, 1560597326706
104, 28189.42, 27120.00, 28646.73, 20816.89, 28185.13, 22993.42, 18528.70, 28325.00, 0.000, 0.000, 0.000, 14:15:26.706, 1560597326706
105, 28133.80, 27072.92, 28591.95, 20770.22, 28170.53, 22966.04, 18476.04, 28293.46, 0.000, 0.000, 0.000, 14:15:26.706, 1560597326706
106, 28181.35, 27097.80, 28610.25, 20799.73, 28170.10, 22986.82, 18493.97, 28309.96, 0.000, 0.000, 0.000, 14:15:26.706, 1560597326706
107, 28288.61, 27183.83, 28697.58, 20892.24, 28196.86, 23045.38, 18585.05, 28378.67, 0.000, 0.000, 0.000, 14:15:26.706, 1560597326706
108, 28289.95, 27187.34, 28696.11, 20893.67, 28201.26, 23044.56, 18600.18, 28387.29, 0.000, 0.000, 0.000, 14:15:26.706, 1560597326706
109, 28177.68, 27123.46, 28646.42, 20823.89, 28192.43, 23004.79, 18546.34, 28342.03, 0.000, 0.000, 0.000, 14:15:26.707, 1560597326707
110, 28105.08, 27077.55, 28597.94, 20764.39, 28174.80, 22967.40, 18486.72, 28296.26, 0.000, 0.000, 0.000, 14:15:26.707, 1560597326707
111, 28160.38, 27110.32, 28619.31, 20812.07, 28180.59, 22994.09, 18516.81, 28334.26, 0.002, 0.058, -1.036, 14:15:26.707, 1560597326707
112, 28288.75, 27180.82, 28704.65, 20897.16, 28200.72, 23043.89, 18592.61, 28386.18, 0.000, 0.000, 0.000, 14:15:26.707, 1560597326707
113, 28294.76, 27182.36, 28698.28, 20890.34, 28203.27, 23037.18, 18602.19, 28387.36, 0.000, 0.000, 0.000, 14:15:26.707, 1560597326707
114, 28194.89, 27126.95, 28633.66, 20826.42, 28187.56, 22995.47, 18543.72, 28343.73, 0.000, 0.000, 0.000, 14:15:26.708, 1560597326708
115, 28097.88, 27076.59, 28591.39, 20765.02, 28171.02, 22962.91, 18490.10, 28307.54, 0.000, 0.000, 0.000, 14:15:26.708, 1560597326708
116, 28162.50, 27115.77, 28625.34, 20806.19, 28178.80, 22988.03, 18508.96, 28324.71, 0.000, 0.000, 0.000, 14:15:26.708, 1560597326708
117, 28266.30, 27185.29, 28697.81, 20899.24, 28199.36, 23040.40, 18583.75, 28376.41, 0.000, 0.000, 0.000, 14:15:26.708, 1560597326708
118, 28287.45, 27181.49, 28698.92, 20893.16, 28202.94, 23039.35, 18593.54, 28380.48, 0.000, 0.000, 0.000, 14:15:26.708, 1560597326708
119, 28223.28, 27122.41, 28643.38, 20824.99, 28191.54, 23002.54, 18541.02, 28342.59, 0.000, 0.000, 0.000, 14:15:26.708, 1560597326708
120, 28111.74, 27076.25, 28595.86, 20772.53, 28178.04, 22971.51, 18489.21, 28306.49, 0.004, 0.052, -1.030, 14:15:26.708, 1560597326708
121, 28158.08, 27105.80, 28627.09, 20810.05, 28183.38, 22994.80, 18506.91, 28327.57, 0.000, 0.000, 0.000, 14:15:26.708, 1560597326708
122, 28294.69, 27183.01, 28697.49, 20898.30, 28204.68, 23046.95, 18583.98, 28383.41, 0.000, 0.000, 0.000, 14:15:26.708, 1560597326708
123, 28291.18, 27203.46, 28710.10, 20906.70, 28214.25, 23050.30, 18603.96, 28392.84, 0.000, 0.000, 0.000, 14:15:26.709, 1560597326709
124, 28202.31, 27140.20, 28658.94, 20843.20, 28201.89, 23012.19, 18548.19, 28355.89, 0.000, 0.000, 0.000, 14:15:26.709, 1560597326709
125, 28118.58, 27085.02, 28620.02, 20785.31, 28185.88, 22981.79, 18489.65, 28316.73, 0.000, 0.000, 0.000, 14:15:26.709, 1560597326709
126, 28172.38, 27121.58, 28648.65, 20829.50, 28192.12, 23010.43, 18515.63, 28338.46, 0.000, 0.000, 0.000, 14:15:26.709, 1560597326709
127, 28268.36, 27196.66, 28709.21, 20922.66, 28217.31, 23065.59, 18595.09, 28389.82, 0.000, 0.000, 0.000, 14:15:26.709, 1560597326709
