%OpenBCI Raw EEG Data
%Number of channels = 8
%Sample Rate = 250.0 Hz
%First Column = SampleIndex
%Last Column = Timestamp 
%Other Columns = EEG data in microvolts followed by Accel Data (in G) interleaved with Aux Data
99, 148552.69, 154440.33, 47535.30, 170588.00, 161724.77, 47461.13, 167177.52, 152901.27, 3.533, 3.460, 1.794, 15:06:29.190, 1560513989190
10, 1464.75, 177246.00, -150879.03, -33691.50, 95214.77, 162597.61, -180168.95, 58593.64, -0.992, -1.024, -3.554, 15:06:29.190, 1560513989190
176, 2929.60, 180175.69, -147949.34, -7324.31, 104003.83, 159667.92, -174309.52, 140624.91, -0.704, 0.000, 0.000, 15:06:29.191, 1560513989191
0, 4394.44, 181640.53, -147949.34, -11718.84, 90820.23, 150878.86, -178703.58, 137695.22, -0.640, 0.000, 0.000, 15:06:29.191, 1560513989191
0, 5859.29, 181640.53, -162597.78, -16113.37, 83496.01, 150878.86, 184577.88, -11718.86, -0.640, 0.000, 0.000, 15:06:29.191, 1560513989191
0, 7324.13, 181640.53, -153808.72, -17578.22, 82031.16, 137695.25, -178703.44, -41015.74, -1.088, 0.000, 0.000, 15:06:29.191, 1560513989191
0, 8788.97, 180175.69, -156738.41, -5859.46, 90820.23, 133300.72, -162590.72, 4394.42, -0.544, 0.000, 0.000, 15:06:29.191, 1560513989191
0, 10253.82, 184570.22, -147949.34, -17578.22, 102538.98, 143554.63, -146477.39, -123047.00, -0.800, 0.000, 0.000, 15:06:29.191, 1560513989191
0, 11718.66, 186035.06, -152343.88, -27832.12, 82031.16, 156738.23, -183097.92, 11718.64, -1.120, -0.512, 1.053, 15:06:29.191, 1560513989191
160, 13183.51, 181640.53, -137695.44, -35156.34, 80566.32, 150878.86, 186042.91, 104003.80, -1.216, 0.000, 0.000, 15:06:29.191, 1560513989191
0, 14648.35, 187499.91, -147949.34, -20507.90, 82031.16, 155273.39, -171379.25, -86425.90, -0.928, 0.000, 0.000, 15:06:29.192, 1560513989192
0, 16113.19, 184570.22, -155273.56, -13183.68, 76171.79, 150878.86, -181633.55, -180175.91, -0.832, 0.000, 0.000, 15:06:29.192, 1560513989192
0, 17578.04, 178710.84, -166992.31, -11718.84, 79101.48, 150878.86, -183098.27, 36620.98, -0.768, 0.000, 0.000, 15:06:29.192, 1560513989192
0, 19042.88, 183105.38, -156738.41, -17578.22, 79101.48, 168456.98, -178703.08, 99609.27, -0.544, 0.000, 0.000, 15:06:29.192, 1560513989192
0, 20507.72, 183105.38, -149414.19, -24902.44, 77636.63, 155273.39, -172843.73, 71777.23, -0.640, 0.000, 0.000, 15:06:29.192, 1560513989192
0, 21972.57, 181640.53, -162597.78, -27832.12, 95214.77, 164062.45, -184562.77, -42480.59, -0.544, 0.000, 0.000, 15:06:29.192, 1560513989192
0, 23437.41, 178710.84, -168457.16, -13183.68, 82031.16, 161132.77, 184577.50, -46875.12, -0.384, 0.000, 0.000, 15:06:29.192, 1560513989192
0, 24902.26, 181640.53, -155273.56, -23437.59, 96679.61, 150878.86, -175773.98, -65918.09, -0.544, 0.000, 1.564, 15:06:29.192, 1560513989192
160, 26367.10, 177246.00, -155273.56, -33691.50, 109863.20, 140624.94, -175773.31, 177246.00, -0.832, 0.000, 0.000, 15:06:29.200, 1560513989200
0, 27831.94, 181640.53, -156738.41, -14648.53, 92285.08, 140624.94, -177238.13, -70312.62, -0.864, 0.000, 0.000, 15:06:29.200, 1560513989200
0, 29296.79, 181640.53, -164062.63, -10254.00, 74706.95, 143554.63, -180168.06, 158203.03, -0.864, 0.000, 0.000, 15:06:29.200, 1560513989200
0, 30761.63, 180175.69, -159668.09, -23437.59, 77636.63, 156738.23, -184563.06, -112793.09, -0.608, 0.000, 0.000, 15:06:29.200, 1560513989200
0, 32226.48, 180175.69, -159668.09, -24902.44, 96679.61, 152343.70, -171379.36, 79101.46, -0.800, 0.000, 0.000, 15:06:29.200, 1560513989200
0, 33691.32, 181640.53, -142089.97, -29296.97, 77636.63, 155273.39, -159660.09, -101074.34, -0.832, 0.000, 0.000, 15:06:29.201, 1560513989201
0, 35156.16, 183105.38, -137695.44, -16113.37, 84960.85, 158203.08, -169913.86, 96679.59, -0.672, 0.000, 0.000, 15:06:29.201, 1560513989201
0, 36621.01, 187499.91, -152343.88, -11718.84, 95214.77, 161132.77, 186042.95, -14648.55, -0.768, 0.000, 0.000, 15:06:29.201, 1560513989201
0, 38085.85, 181640.53, -166992.31, -8789.15, 84960.85, 159667.92, -177238.70, -17578.24, -0.960, 0.000, 0.000, 15:06:29.201, 1560513989201
0, 39550.70, 178710.84, -162597.78, -16113.37, 71777.26, 155273.39, -171379.30, -27832.14, -0.928, -0.512, 2.588, 15:06:29.201, 1560513989201
208, 41015.54, 178710.84, -156738.41, -24902.44, 73242.10, 156738.23, -166984.22, -57129.02, -0.864, 0.000, 0.000, 15:06:29.201, 1560513989201
0, 42480.38, 181640.53, -159668.09, -21972.75, 87890.54, 172851.52, -161124.63, -57129.02, -0.992, 0.000, 0.000, 15:06:29.201, 1560513989201
0, 43945.23, 184570.22, -156738.41, -21972.75, 99609.30, 169921.83, -186027.13, 152343.66, -1.152, 0.000, 0.000, 15:06:29.202, 1560513989202
0, 45410.07, 181640.53, -147949.34, -24902.44, 87890.54, 164062.45, 186042.61, -114257.94, -1.184, 0.000, 0.000, 15:06:29.202, 1560513989202
0, 46874.91, 180175.69, -155273.56, -10254.00, 93749.92, 166992.14, -174308.95, 125976.46, -0.960, 0.000, 0.000, 15:06:29.202, 1560513989202
0, 48339.76, 178710.84, -159668.09, -5859.46, 93749.92, 155273.39, -175773.33, -42480.59, -0.896, 0.000, 0.000, 15:06:29.202, 1560513989202
0, 49804.60, 180175.69, -161132.94, -20507.90, 96679.61, 153808.55, -178702.77, 16113.17, -0.832, 0.000, 0.000, 15:06:29.202, 1560513989202
0, 51269.45, 180175.69, -165527.47, -32226.65, 99609.30, 155273.39, -178703.05, -11718.86, -0.896, 0.000, 0.000, 15:06:29.202, 1560513989202
0, 52734.29, 178710.84, -156738.41, -24902.44, 92285.08, 150878.86, -175773.84, -125976.69, -0.960, 0.000, 0.000, 15:06:29.203, 1560513989203
0, 54199.13, 177246.00, -156738.41, -8789.15, 106933.52, 159667.92, -177238.55, -120117.31, -0.480, 0.000, -3.556, 15:06:29.203, 1560513989203
176, 55663.98, 181640.53, -156738.41, -14648.53, 105468.67, 146484.31, -174308.20, 54199.11, -0.384, 0.000, 0.000, 15:06:29.203, 1560513989203
0, 57128.82, 186035.06, -159668.09, -11718.84, 95214.77, 150878.86, -177237.80, -104004.02, -0.544, 0.000, 0.000, 15:06:29.203, 1560513989203
0, 58593.66, 181640.53, -171386.84, -20507.90, 89355.39, 147949.16, -177238.02, 186035.06, -0.928, 0.000, 0.000, 15:06:29.203, 1560513989203
0, 60058.51, 177246.00, -168457.16, -16113.37, 96679.61, 149414.02, -166984.56, 33691.30, -0.608, 0.000, 0.000, 15:06:29.204, 1560513989204
0, 61523.35, 178710.84, -162597.78, -16113.37, 102538.98, 145019.47, -165519.77, 49804.58, -0.768, 0.000, 0.000, 15:06:29.204, 1560513989204
0, 62988.20, 183105.38, -168457.16, -8789.15, 106933.52, 155273.39, -174308.33, -114257.94, -1.024, 0.000, 0.000, 15:06:29.205, 1560513989205
0, 64453.04, 183105.38, -169922.00, -19043.06, 93749.92, 169921.83, 183113.84, -124511.84, -0.928, 0.000, 0.000, 15:06:29.205, 1560513989205
0, 65917.88, 180175.69, -150879.03, -23437.59, 86425.70, 146484.31, -165519.16, -159668.09, -0.640, 0.000, 0.000, 15:06:29.205, 1560513989205
0, 67382.73, 181640.53, -166992.31, -30761.81, 96679.61, 136230.41, -168449.31, -80566.52, -0.576, 0.000, 0.000, 15:06:29.205, 1560513989205
0, 68847.57, 180175.69, -169922.00, -32226.65, 95214.77, 143554.63, -175773.58, 77636.62, -0.960, 0.512, -3.556, 15:06:29.205, 1560513989205
48, 70312.41, 183105.38, -166992.31, -26367.28, 93749.92, 150878.86, -168448.81, 184570.22, -0.800, 0.000, 0.000, 15:06:29.206, 1560513989206
0, 71777.26, 181640.53, -174316.53, -21972.75, 82031.16, 152343.70, -177237.73, 101074.12, -1.024, 0.000, 0.000, 15:06:29.206, 1560513989206
0, 73242.10, 180175.69, -166992.31, -19043.06, 83496.01, 171386.67, -180167.58, 39550.67, -0.832, 0.000, 0.000, 15:06:29.206, 1560513989206
0, 74706.95, 180175.69, -164062.63, -13183.68, 86425.70, 180175.73, -161125.03, 111328.02, -0.800, 0.000, 0.000, 15:06:29.206, 1560513989206
0, 76171.79, 178710.84, -162597.78, -13183.68, 96679.61, 149414.02, -183097.61, 125976.46, -0.960, 0.000, 0.000, 15:06:29.206, 1560513989206
0, 77636.63, 180175.69, -155273.56, -16113.37, 92285.08, 130371.04, -178702.61, 7324.11, -0.512, 0.000, 0.000, 15:06:29.206, 1560513989206
0, 79101.48, 181640.53, -155273.56, -2929.78, 93749.92, 147949.16, -175772.81, -131836.06, -0.704, 0.000, 0.000, 15:06:29.207, 1560513989207
0, 80566.32, 181640.53, -165527.47, -1464.93, 101074.14, 147949.16, 171395.03, 57128.80, -0.928, 0.000, 0.000, 15:06:29.207, 1560513989207
0, 82031.16, 183105.38, -169922.00, -20507.90, 93749.92, 136230.41, 186042.95, -111328.24, -0.960, 0.000, 0.000, 15:06:29.207, 1560513989207
0, 83496.01, 183105.38, -152343.88, -21972.75, 86425.70, 137695.25, 181648.52, 10253.79, -0.576, -0.512, -3.044, 15:06:29.207, 1560513989207
176, 84960.85, 180175.69, -155273.56, -26367.28, 90820.23, 145019.47, -186026.81, -52734.49, -0.640, 0.000, 0.000, 15:06:29.207, 1560513989207
0, 86425.70, 181640.53, -166992.31, -38086.03, 90820.23, 146484.31, -183096.92, 27831.92, -0.704, 0.000, 0.000, 15:06:29.207, 1560513989207
0, 87890.54, 184570.22, -169922.00, -26367.28, 101074.14, 162597.61, -183097.11, 174316.31, -0.640, 0.000, 0.000, 15:06:29.207, 1560513989207
0, 89355.39, 183105.38, -171386.84, -10254.00, 92285.08, 158203.08, -181632.81, 183105.38, -0.960, 0.000, 0.000, 15:06:29.208, 1560513989208
0, 90820.23, 181640.53, -156738.41, -13183.68, 82031.16, 155273.39, -171378.91, -38086.05, -0.800, 0.000, 0.000, 15:06:29.208, 1560513989208
0, 92285.08, 184570.22, -156738.41, -17578.22, 89355.39, 150878.86, -187491.56, 172851.47, -0.544, 0.000, 0.000, 15:06:29.208, 1560513989208
0, 93749.92, 186035.06, -147949.34, -16113.37, 98144.45, 159667.92, -186026.61, -79101.68, -0.640, 0.000, 0.000, 15:06:29.208, 1560513989208
0, 95214.77, 186035.06, -161132.94, -23437.59, 77636.63, 156738.23, -177237.73, -111328.24, -0.576, 0.000, 0.000, 15:06:29.208, 1560513989208
0, 96679.61, 181640.53, -165527.47, -16113.37, 101074.14, 156738.23, -174308.44, -140625.13, -0.640, 0.000, 0.000, 15:06:29.208, 1560513989208
0, 98144.45, 178710.84, -147949.34, -23437.59, 115722.58, 158203.08, -168449.05, 165527.25, -0.864, 0.000, -3.044, 15:06:29.209, 1560513989209
240, 99609.30, 180175.69, -150879.03, -10254.00, 92285.08, 153808.55, -162589.16, 77636.62, -0.928, 0.000, 0.000, 15:06:29.209, 1560513989209
0, 101074.14, 184570.22, -152343.88, -11718.84, 76171.79, 152343.70, -164053.94, 106933.49, -0.736, 0.000, 0.000, 15:06:29.209, 1560513989209
0, 102538.98, 181640.53, -158203.25, -5859.46, 77636.63, 155273.39, -169913.47, -118652.47, -0.928, 0.000, 0.000, 15:06:29.209, 1560513989209
0, 104003.83, 183105.38, -150879.03, -27832.12, 96679.61, 152343.70, -169913.81, -71777.46, -0.864, 0.000, 0.000, 15:06:29.209, 1560513989209
0, 105468.67, 180175.69, -149414.19, -20507.90, 82031.16, 161132.77, -175773.23, 124511.62, -0.576, 0.000, 0.000, 15:06:29.210, 1560513989210
0, 106933.52, 180175.69, -149414.19, -11718.84, 86425.70, 158203.08, -164053.95, 169921.78, -0.768, 0.000, 0.000, 15:06:29.210, 1560513989210
0, 108398.36, 181640.53, -164062.63, -19043.06, 87890.54, 155273.39, -169913.11, 4394.42, -0.864, 0.000, 0.000, 15:06:29.210, 1560513989210
0, 109863.20, 184570.22, -175781.38, -35156.34, 93749.92, 159667.92, -178702.45, 124511.62, -0.800, 0.000, 0.000, 15:06:29.210, 1560513989210
0, 111328.05, 180175.69, -159668.09, -23437.59, 96679.61, 156738.23, -183097.48, -186035.28, -0.160, 0.000, 0.000, 15:06:29.210, 1560513989210
0, 112792.89, 184570.22, -156738.41, -20507.90, 79101.48, 155273.39, -175773.31, 166992.09, -0.576, -1.536, -2.532, 15:06:29.210, 1560513989210
240, 114257.73, -186035.28, -168457.16, -26367.28, 70312.41, 162597.61, -166983.59, 108398.34, -1.024, 0.000, 0.000, 15:06:29.211, 1560513989211
0, 115722.58, -186035.28, -171386.84, -21972.75, 82031.16, 172851.52, -171378.02, -27832.14, -1.344, 0.000, 0.000, 15:06:29.211, 1560513989211
0, 117187.42, 184570.22, -158203.25, -23437.59, 83496.01, 150878.86, -186026.66, 108398.34, -1.120, 0.000, 0.000, 15:06:29.211, 1560513989211
0, 118652.27, 180175.69, -152343.88, -17578.22, 86425.70, 159667.92, -171378.59, -84961.05, -0.576, 0.000, 0.000, 15:06:29.211, 1560513989211
0, 120117.11, 181640.53, -146484.50, -17578.22, 90820.23, 146484.31, -175773.23, -49804.80, -0.800, 0.000, 0.000, 15:06:29.211, 1560513989211
0, 121581.95, 180175.69, -150879.03, -19043.06, 96679.61, 133300.72, -183096.77, -124511.84, -0.704, 0.000, 0.000, 15:06:29.211, 1560513989211
0, 123046.80, 181640.53, -155273.56, -33691.50, 77636.63, 146484.31, -178702.09, 101074.12, -0.608, 0.000, 0.000, 15:06:29.211, 1560513989211
0, 124511.64, 184570.22, -162597.78, -23437.59, 82031.16, 155273.39, -174307.92, 124511.62, -0.480, 0.000, 0.000, 15:06:29.212, 1560513989212
0, 125976.48, 181640.53, -166992.31, -20507.90, 93749.92, 158203.08, -166984.06, 99609.27, -0.608, 0.000, 0.000, 15:06:29.212, 1560513989212
0, 127441.33, 180175.69, -145019.66, -23437.59, 86425.70, 153808.55, -171378.58, 181640.53, -0.608, 0.000, -3.044, 15:06:29.212, 1560513989212
176, 128906.17, 180175.69, -156738.41, -23437.59, 80566.32, 162597.61, -162589.02, -11718.86, -0.800, 0.000, 0.000, 15:06:29.212, 1560513989212
0, 130371.02, 181640.53, -186035.28, -24902.44, 73242.10, 172851.52, -171377.92, -117187.63, -1.152, 0.000, 0.000, 15:06:29.213, 1560513989213
0, 131835.86, 180175.69, -171386.84, -32226.65, 74706.95, 169921.83, -175772.64, -73242.30, -0.960, 0.000, 0.000, 15:06:29.213, 1560513989213
0, 133300.70, 184570.22, -156738.41, -21972.75, 87890.54, 172851.52, 183113.75, 150878.81, -0.896, 0.000, 0.000, 15:06:29.213, 1560513989213
0, 134765.55, 181640.53, -156738.41, -17578.22, 92285.08, 143554.63, -187491.81, -169922.00, -0.928, 0.000, 0.000, 15:06:29.213, 1560513989213
0, 136230.39, 180175.69, -152343.88, -35156.34, 90820.23, 147949.16, -178702.25, 136230.38, -0.896, 0.000, 0.000, 15:06:29.213, 1560513989213
0, 137695.23, 181640.53, -152343.88, -21972.75, 89355.39, 169921.83, -166983.38, 45410.05, -0.704, 0.000, 0.000, 15:06:29.213, 1560513989213
0, 139160.08, 181640.53, -175781.38, -24902.44, 93749.92, 162597.61, -171378.08, -39550.89, -0.992, 0.000, 0.000, 15:06:29.213, 1560513989213
0, 140624.92, 180175.69, 186035.06, -35156.34, 92285.08, 172851.52, -180167.55, 161132.72, -0.992, 0.000, 0.000, 15:06:29.214, 1560513989214
0, 142089.77, 183105.38, -164062.63, -29296.97, 79101.48, 143554.63, -174308.27, -120117.31, -0.608, -1.024, -3.556, 15:06:29.214, 1560513989214
192, 143554.61, 177246.00, -161132.94, -13183.68, 84960.85, 152343.70, -177237.39, -52734.49, -0.992, 0.000, 0.000, 15:06:29.214, 1560513989214
0, 145019.45, 177246.00, -171386.84, -4394.62, 77636.63, 164062.45, -175772.38, 4394.42, -1.056, 0.000, 0.000, 15:06:29.214, 1560513989214
0, 146484.30, 181640.53, -169922.00, -26367.28, 95214.77, 155273.39, -181631.83, 60058.49, -0.800, 0.000, 0.000, 15:06:29.214, 1560513989214
0, 147949.14, 187499.91, -166992.31, -16113.37, 99609.30, 145019.47, 183113.83, 136230.38, -0.608, 0.000, 0.000, 15:06:29.214, 1560513989214
0, 149413.98, 184570.22, -159668.09, -42480.56, 96679.61, 145019.47, -186026.97, -106933.71, -0.608, 0.000, 0.000, 15:06:29.215, 1560513989215
0, 150878.83, 183105.38, -166992.31, -14648.53, 82031.16, 156738.23, 186043.91, -181640.75, -0.896, 0.000, 0.000, 15:06:29.215, 1560513989215
0, 152343.67, 181640.53, -164062.63, -10254.00, 86425.70, 150878.86, -168448.02, 61523.33, -0.576, 0.000, 0.000, 15:06:29.215, 1560513989215
0, 153808.52, 180175.69, -150879.03, -29296.97, 95214.77, 147949.16, -161124.02, -35156.36, -0.960, 0.000, 0.000, 15:06:29.215, 1560513989215
0, 155273.36, 177246.00, -149414.19, -27832.12, 98144.45, 133300.72, -183097.13, -24902.46, -0.800, 0.000, 0.000, 15:06:29.215, 1560513989215
0, 156738.20, 181640.53, -145019.66, -14648.53, 90820.23, 136230.41, -174308.03, -48339.96, -0.832, -2.048, -2.020, 15:06:29.215, 1560513989215
176, 158203.05, 184570.22, -156738.41, -26367.28, 86425.70, 147949.16, -187491.17, 62988.18, -0.608, 0.000, 0.000, 15:06:29.215, 1560513989215
0, 159667.89, 181640.53, -159668.09, -17578.22, 80566.32, 142089.78, 184579.20, -71777.46, -0.864, 0.000, 0.000, 15:06:29.216, 1560513989216
0, 161132.73, 178710.84, -158203.25, -8789.15, 84960.85, 133300.72, -168448.28, -162597.78, -0.544, 0.000, 0.000, 15:06:29.216, 1560513989216
0, 162597.58, 180175.69, -152343.88, -20507.90, 80566.32, 137695.25, -168448.69, -175781.38, -0.640, 0.000, 0.000, 15:06:29.216, 1560513989216
0, 164062.42, 180175.69, -168457.16, -23437.59, 87890.54, 149414.02, -180167.50, -98144.65, -1.056, 0.000, 0.000, 15:06:29.216, 1560513989216
0, 165527.27, 180175.69, -162597.78, -5859.46, 84960.85, 156738.23, -175772.38, -39550.89, -0.704, 0.000, 0.000, 15:06:29.216, 1560513989216
0, 166992.11, 183105.38, -158203.25, -17578.22, 101074.14, 166992.14, -169912.97, -124511.84, -1.024, 0.000, 0.000, 15:06:29.216, 1560513989216
0, 168456.95, 181640.53, -162597.78, -24902.44, 79101.48, 156738.23, -172842.86, 67382.70, -0.800, 0.000, 0.000, 15:06:29.216, 1560513989216
0, 169921.80, 181640.53, -180175.91, -17578.22, 73242.10, 149414.02, -171378.33, -61523.55, -0.544, 0.000, 0.000, 15:06:29.217, 1560513989217
0, 171386.64, 181640.53, -166992.31, -13183.68, 87890.54, 158203.08, -181632.27, -186035.28, -0.992, -1.024, -1.508, 15:06:29.217, 1560513989217
176, 172851.48, 184570.22, -161132.94, -8789.15, 68847.57, 155273.39, -183096.59, -32226.68, -1.056, 0.000, 0.000, 15:06:29.217, 1560513989217
0, 174316.33, 181640.53, -162597.78, -17578.22, 90820.23, 162597.61, -183096.41, 8788.95, -0.736, 0.000, 0.000, 15:06:29.217, 1560513989217
0, 175781.17, 181640.53, -145019.66, -16113.37, 98144.45, 162597.61, -175772.34, 48339.73, -1.056, 0.000, 0.000, 15:06:29.669, 1560513989669
0, 177246.02, 180175.69, -159668.09, -20507.90, 89355.39, 147949.16, -169913.39, 51269.42, -0.928, 0.000, 0.000, 15:06:29.670, 1560513989670
0, 178710.86, 187499.91, -168457.16, -27832.12, 93749.92, 150878.86, -174308.11, -172851.69, -0.768, 0.000, 0.000, 15:06:29.670, 1560513989670
0, 180175.70, 180175.69, -168457.16, -27832.12, 82031.16, 164062.45, -159659.09, -164062.63, -0.800, 0.000, 0.000, 15:06:29.670, 1560513989670
0, 181640.55, 178710.84, -156738.41, -14648.53, 74706.95, 143554.63, -172842.48, -24902.46, -1.024, 0.000, 0.000, 15:06:29.670, 1560513989670
0, 183105.39, 181640.53, -125976.69, -10254.00, 79101.48, 155273.39, -186026.23, -118652.47, -1.184, 0.000, 0.000, 15:06:29.670, 1560513989670
0, 184570.23, 181640.53, -145019.66, -23437.59, 86425.70, 155273.39, -174307.88, 164062.41, -0.704, -1.024, -1.508, 15:06:29.670, 1560513989670
224, 186035.08, 186035.06, -152343.88, -32226.65, 84960.85, 150878.86, -161124.44, -147949.34, -0.512, 0.000, 0.000, 15:06:29.670, 1560513989670
0, 187499.92, 183105.38, -152343.88, -24902.44, 86425.70, 155273.39, -168448.08, -111328.24, -0.640, 0.000, 0.000, 15:06:29.670, 1560513989670
0, -186035.27, 183105.38, -162597.78, -24902.44, 104003.83, 165527.30, -168447.95, 159667.88, -0.736, 0.000, 0.000, 15:06:29.670, 1560513989670
0, -184570.42, 180175.69, -150879.03, -13183.68, 93749.92, 147949.16, -171377.92, -165527.47, -0.800, 0.000, 0.000, 15:06:29.670, 1560513989670
0, -183105.58, 181640.53, -155273.56, -30761.81, 77636.63, 145019.47, -165518.89, -14648.55, -0.960, 0.000, 0.000, 15:06:29.670, 1560513989670
0, -181640.73, 183105.38, -169922.00, -16113.37, 96679.61, 150878.86, -183096.98, 24902.23, -0.896, 0.000, 0.000, 15:06:29.671, 1560513989671
0, -180175.89, 181640.53, -166992.31, -17578.22, 92285.08, 146484.31, -177237.09, 142089.75, -1.184, 0.000, 0.000, 15:06:29.671, 1560513989671
0, -178711.05, 181640.53, -164062.63, -14648.53, 89355.39, 146484.31, -178701.70, 45410.05, -0.896, 0.000, 0.000, 15:06:29.672, 1560513989672
0, -177246.20, 178710.84, -159668.09, -10254.00, 93749.92, 145019.47, -178701.86, 61523.33, -0.864, 0.000, 0.000, 15:06:29.672, 1560513989672
0, -175781.36, 177246.00, -153808.72, -24902.44, 101074.14, 159667.92, -166983.63, -48339.96, -0.864, -0.512, -2.020, 15:06:29.672, 1560513989672
224, -174316.52, 175781.16, -166992.31, -30761.81, 84960.85, 162597.61, -162589.16, 109863.18, -0.736, 0.000, 0.000, 15:06:29.672, 1560513989672
0, -172851.67, 177246.00, -183105.59, -42480.56, 67382.73, 150878.86, -149405.14, -74707.15, -0.896, 0.000, 0.000, 15:06:29.672, 1560513989672
0, -171386.83, 183105.38, -177246.22, -27832.12, 79101.48, 155273.39, -164053.50, -169922.00, -1.088, 0.000, 0.000, 15:06:29.672, 1560513989672
0, -169921.98, 187499.91, -161132.94, -13183.68, 96679.61, 155273.39, 184579.22, 16113.17, -0.800, 0.000, 0.000, 15:06:29.672, 1560513989672
0, -168457.14, 181640.53, -153808.72, -7324.31, 77636.63, 155273.39, 186043.73, 101074.12, -0.640, 0.000, 0.000, 15:06:29.672, 1560513989672
0, -166992.30, 178710.84, -149414.19, -20507.90, 67382.73, 145019.47, -171378.27, -65918.09, -0.896, 0.000, 0.000, 15:06:29.672, 1560513989672
0, -165527.45, 175781.16, -159668.09, -26367.28, 93749.92, 150878.86, -164053.50, -121582.16, -0.896, 0.000, 0.000, 15:06:29.673, 1560513989673
0, -164062.61, 177246.00, -166992.31, -17578.22, 98144.45, 145019.47, -174307.28, -4394.64, -0.960, 0.000, 0.000, 15:06:29.673, 1560513989673
0, -162597.77, 180175.69, -156738.41, -32226.65, 93749.92, 147949.16, -174307.34, -62988.40, -0.736, 0.000, 0.000, 15:06:29.673, 1560513989673
0, -161132.92, 186035.06, -155273.56, -13183.68, 95214.77, 172851.52, -156729.63, -180175.91, -0.896, 1.024, -4.068, 15:06:29.674, 1560513989674
144, -159668.08, 181640.53, -171386.84, -13183.68, 87890.54, 169921.83, -161124.36, -87890.74, -0.672, 0.000, 0.000, 15:06:29.674, 1560513989674
0, -158203.23, 178710.84, -152343.88, -24902.44, 95214.77, 162597.61, -168448.16, 184570.22, -0.768, 0.000, 0.000, 15:06:29.676, 1560513989676
0, -156738.39, 180175.69, -164062.63, -38086.03, 87890.54, 162597.61, -161123.61, -79101.68, -0.736, 0.000, 0.000, 15:06:29.677, 1560513989677
0, -155273.55, 180175.69, -142089.97, -21972.75, 86425.70, 168456.98, -168447.92, 96679.59, -0.800, 0.000, 0.000, 15:06:29.677, 1560513989677
0, -153808.70, 180175.69, -164062.63, -16113.37, 84960.85, 156738.23, -184561.72, 153808.50, -0.640, 0.000, 0.000, 15:06:29.677, 1560513989677
0, -152343.86, 183105.38, -171386.84, -24902.44, 89355.39, 174316.36, 186043.73, 20507.70, -0.800, 0.000, 0.000, 15:06:29.677, 1560513989677
0, -150879.02, 180175.69, -156738.41, -13183.68, 93749.92, 162597.61, -177237.06, -127441.53, -0.736, 0.000, 0.000, 15:06:29.677, 1560513989677
0, -149414.17, 181640.53, -159668.09, -5859.46, 99609.30, 155273.39, -178701.61, -124511.84, -0.768, 0.000, 0.000, 15:06:29.677, 1560513989677
0, -147949.33, 180175.69, -164062.63, -23437.59, 90820.23, 171386.67, -180166.78, 161132.72, -0.704, 0.000, 0.000, 15:06:29.677, 1560513989677
0, -146484.48, 177246.00, -171386.84, -20507.90, 101074.14, 165527.30, -177237.50, 136230.38, -0.768, 2.048, -3.044, 15:06:29.678, 1560513989678
128, -145019.63, 184570.22, -156738.41, -8789.15, 92285.08, 155273.39, -171378.17, 109863.18, -0.896, 0.000, 0.000, 15:06:29.678, 1560513989678
0, -143554.78, 184570.22, -152343.88, -10254.00, 106933.52, 152343.70, -168447.91, 23437.39, -1.024, 0.000, 0.000, 15:06:29.678, 1560513989678
0, -142089.94, 180175.69, -174316.53, -10254.00, 99609.30, 159667.92, -171377.44, -127441.53, -0.800, 0.000, 0.000, 15:06:29.678, 1560513989678
0, -140625.09, 178710.84, -156738.41, -10254.00, 101074.14, 155273.39, -181631.55, -45410.27, -0.384, 0.000, 0.000, 15:06:29.678, 1560513989678
0, -139160.25, 177246.00, -153808.72, -32226.65, 95214.77, 147949.16, -180167.09, 36620.98, -0.480, 0.000, 0.000, 15:06:29.678, 1560513989678
0, -137695.41, 177246.00, -165527.47, -32226.65, 92285.08, 147949.16, -180167.27, -48339.96, -0.672, 0.000, 0.000, 15:06:29.679, 1560513989679
0, -136230.56, 180175.69, -159668.09, -16113.37, 79101.48, 155273.39, -181631.52, -60058.71, -0.960, 0.000, 0.000, 15:06:29.679, 1560513989679
0, -134765.72, 181640.53, -153808.72, -10254.00, 77636.63, 158203.08, 178720.30, 104003.80, -0.800, 0.000, 0.000, 15:06:29.679, 1560513989679
0, -133300.88, 181640.53, -159668.09, -30761.81, 89355.39, 137695.25, -177236.92, -117187.63, -0.960, 0.000, 0.000, 15:06:29.679, 1560513989679
0, -131836.03, 184570.22, -171386.84, -30761.81, 82031.16, 133300.72, -172842.81, 130370.99, -1.024, 0.512, -3.556, 15:06:29.679, 1560513989679
160, -130371.20, 180175.69, -166992.31, -24902.44, 99609.30, 150878.86, -184561.75, 77636.62, -0.896, 0.000, 0.000, 15:06:29.679, 1560513989679
0, -128906.35, 180175.69, -162597.78, -21972.75, 101074.14, 145019.47, -172842.45, -7324.33, -0.992, 0.000, 0.000, 15:06:29.679, 1560513989679
0, -127441.51, 184570.22, -156738.41, -20507.90, 101074.14, 133300.72, -161123.45, 36620.98, -0.960, 0.000, 0.000, 15:06:29.679, 1560513989679
0, -125976.66, 184570.22, -152343.88, -23437.59, 93749.92, 145019.47, -159658.75, 36620.98, -0.736, 0.000, 0.000, 15:06:29.679, 1560513989679
0, -124511.82, 181640.53, -153808.72, -14648.53, 90820.23, 155273.39, -166983.31, 5859.26, -0.704, 0.000, 0.000, 15:06:29.679, 1560513989679
0, -123046.98, 181640.53, -152343.88, -24902.44, 86425.70, 158203.08, -171378.06, -39550.89, -0.736, 0.000, 0.000, 15:06:29.679, 1560513989679
0, -121582.13, 184570.22, -155273.56, -30761.81, 82031.16, 145019.47, -168448.00, -108398.55, -0.576, 0.000, 0.000, 15:06:29.679, 1560513989679
0, -120117.29, 183105.38, -150879.03, -17578.22, 86425.70, 145019.47, -162588.44, 152343.66, -0.416, 0.000, 0.000, 15:06:29.679, 1560513989679
0, -118652.45, 183105.38, -164062.63, -27832.12, 92285.08, 145019.47, -180166.66, 159667.88, -0.672, 0.000, 0.000, 15:06:29.679, 1560513989679
0, -117187.60, 180175.69, -161132.94, -32226.65, 96679.61, 147949.16, -175772.45, 41015.52, -0.800, 0.512, -3.044, 15:06:29.679, 1560513989679
160, -115722.76, 180175.69, -162597.78, -39550.88, 98144.45, 147949.16, -180167.13, 155273.34, -0.896, 0.000, 0.000, 15:06:29.680, 1560513989680
0, -114257.91, 178710.84, -158203.25, -17578.22, 96679.61, 143554.63, 177255.23, 67382.70, -0.800, 0.000, 0.000, 15:06:29.680, 1560513989680
0, -112793.07, 183105.38, -149414.19, -19043.06, 104003.83, 150878.86, 178720.36, 169921.78, -0.800, 0.000, 0.000, 15:06:29.680, 1560513989680
0, -111328.23, 184570.22, -156738.41, -10254.00, 92285.08, 153808.55, -186025.77, 162597.56, -1.216, 0.000, 0.000, 15:06:29.680, 1560513989680
0, -109863.38, 183105.38, -172851.69, -5859.46, 101074.14, 159667.92, -183096.56, 29296.77, -0.928, 0.000, 0.000, 15:06:29.680, 1560513989680
0, -108398.54, 180175.69, -169922.00, -16113.37, 92285.08, 155273.39, 181649.30, 86425.68, -1.024, 0.000, 0.000, 15:06:29.680, 1560513989680
0, -106933.70, 183105.38, -156738.41, -11718.84, 79101.48, 149414.02, -183096.34, 164062.41, -0.768, 0.000, 0.000, 15:06:29.680, 1560513989680
0, -105468.85, 186035.06, -146484.50, -24902.44, 89355.39, 150878.86, -165517.97, -117187.63, -0.576, 0.000, 0.000, 15:06:29.680, 1560513989680
0, -104004.01, 183105.38, -147949.34, -35156.34, 80566.32, 165527.30, -175772.06, -13183.71, -0.736, 0.000, 0.000, 15:06:29.680, 1560513989680
0, -102539.16, 184570.22, -142089.97, -11718.84, 77636.63, 147949.16, -169913.13, 98144.43, -0.704, 0.512, -4.068, 15:06:29.680, 1560513989680
192, -101074.32, 177246.00, -164062.63, -23437.59, 87890.54, 150878.86, -180167.17, -38086.05, -0.928, 0.000, 0.000, 15:06:29.680, 1560513989680
0, -99609.48, 175781.16, -164062.63, -20507.90, 89355.39, 152343.70, -186026.13, 79101.46, -0.960, 0.000, 0.000, 15:06:29.680, 1560513989680
0, -98144.63, 181640.53, -150879.03, -11718.84, 84960.85, 153808.55, -178701.70, -162597.78, -0.992, 0.000, 0.000, 15:06:29.680, 1560513989680
0, -96679.78, 184570.22, -149414.17, 4394.44, 98144.45, 155273.39, -166983.03, 46874.89, -0.896, 0.000, 0.000, 15:06:29.680, 1560513989680
0, -95214.94, 184570.22, -155273.56, -32226.65, 99609.30, 155273.39, -172842.70, 80566.30, -0.960, 0.000, 0.000, 15:06:29.680, 1560513989680
0, -93750.09, 181640.53, -152343.88, -29296.97, 95214.77, 147949.16, -184561.55, -36621.21, -0.960, 0.000, 0.000, 15:06:29.680, 1560513989680
0, -92285.25, 178710.84, -153808.72, -11718.84, 80566.32, 150878.86, 175790.45, 4394.42, -1.216, 0.000, 0.000, 15:06:29.680, 1560513989680
0, -90820.41, 178710.84, -152343.88, -5859.46, 80566.32, 158203.08, -181631.14, 112792.87, -0.928, 0.000, 0.000, 15:06:29.680, 1560513989680
0, -89355.56, 178710.84, -150879.03, -13183.68, 86425.70, 169921.83, -178701.67, -152343.88, -1.312, 0.000, 0.000, 15:06:29.680, 1560513989680
0, -87890.72, 181640.53, -136230.59, -27832.12, 92285.08, 155273.39, -175772.38, 96679.59, -1.120, 0.000, -2.532, 15:06:29.680, 1560513989680
192, -86425.88, 180175.69, -140625.13, -30761.81, 89355.39, 169921.83, -178702.23, 52734.27, -0.768, 0.000, 0.000, 15:06:29.680, 1560513989680
0, -84961.03, 177246.00, -153808.72, -24902.44, 86425.70, 155273.39, -181631.41, -70312.62, -0.800, 0.000, 0.000, 15:06:29.681, 1560513989681
0, -83496.19, 177246.00, -162597.78, -33691.50, 108398.36, 145019.47, -164052.98, 101074.12, -0.544, 0.000, 0.000, 15:06:29.681, 1560513989681
0, -82031.34, 181640.53, -178711.06, -17578.22, 111328.05, 159667.92, -166982.84, 51269.42, -0.640, 0.000, 0.000, 15:06:29.681, 1560513989681
0, -80566.50, 177246.00, -159668.09, -8789.15, 102538.98, 166992.14, -183096.47, 39550.67, -0.736, 0.000, 0.000, 15:06:29.681, 1560513989681
0, -79101.66, 181640.53, -159668.09, -19043.06, 96679.61, 155273.39, -172842.72, -16113.39, -1.056, 0.000, 0.000, 15:06:29.681, 1560513989681
0, -77636.81, 181640.53, -159668.09, -13183.68, 95214.77, 150878.86, -161123.66, -128906.38, -1.120, 0.000, 0.000, 15:06:29.681, 1560513989681
0, -76171.97, 180175.69, -171386.84, -26367.28, 84960.85, 158203.08, -175771.88, 20507.70, -0.864, 0.000, 0.000, 15:06:29.681, 1560513989681
0, -74707.13, 184570.22, -162597.78, -17578.22, 89355.39, 155273.39, 180185.14, 133300.69, -0.736, 0.000, 0.000, 15:06:29.681, 1560513989681
0, -73242.28, 186035.06, -153808.72, -29296.97, 86425.70, 155273.39, -183096.47, 30761.61, -0.832, -0.512, -3.044, 15:06:29.681, 1560513989681
240, -71777.44, 186035.06, -161132.94, -16113.37, 83496.01, 158203.08, -181631.88, -1464.96, -1.056, 0.000, 0.000, 15:06:29.681, 1560513989681
0, -70312.59, 184570.22, -166992.31, -8789.15, 84960.85, 162597.61, -186025.97, -152343.88, -1.056, 0.000, 0.000, 15:06:29.681, 1560513989681
0, -68847.75, 180175.69, -164062.63, -10254.00, 82031.16, 146484.31, 175790.83, -95214.96, -0.544, 0.000, 0.000, 15:06:29.681, 1560513989681
0, -67382.91, 181640.53, -162597.78, -21972.75, 89355.39, 130371.04, 181650.03, 187499.91, -0.640, 0.000, 0.000, 15:06:29.681, 1560513989681
0, -65918.06, 177246.00, -155273.56, -23437.59, 84960.85, 146484.31, -172842.59, -166992.31, -0.608, 0.000, 0.000, 15:06:29.681, 1560513989681
0, -64453.22, 177246.00, -171386.84, -27832.12, 73242.10, 172851.52, -161124.09, -172851.69, -0.640, 0.000, 0.000, 15:06:29.681, 1560513989681
0, -62988.38, 183105.38, -164062.63, -23437.59, 71777.26, 169921.83, -180166.55, 161132.72, -0.576, 0.000, 0.000, 15:06:29.681, 1560513989681
0, -61523.53, 184570.22, -169922.00, -16113.37, 92285.08, 149414.02, -181631.03, 67382.70, -0.576, 0.000, 0.000, 15:06:29.681, 1560513989681
0, -60058.69, 181640.53, -169922.00, -17578.22, 98144.45, 149414.02, -166982.77, 177246.00, -0.640, 0.000, 0.000, 15:06:29.681, 1560513989681
0, -58593.84, 181640.53, -177246.22, -16113.37, 102538.98, 162597.61, 184579.30, 136230.38, -0.864, 2.048, -4.068, 15:06:29.681, 1560513989681
16, -57129.00, 181640.53, -169922.00, -27832.12, 90820.23, 153808.55, -177237.39, 86425.68, -0.736, 0.000, 0.000, 15:06:29.681, 1560513989681
0, -55664.16, 177246.00, -186035.28, -24902.44, 74706.95, 143554.63, -181631.34, -152343.88, -0.896, 0.000, 0.000, 15:06:29.681, 1560513989681
0, -54199.31, 177246.00, -172851.69, -19043.06, 79101.48, 142089.78, 186044.73, 142089.75, -0.864, 0.000, 0.000, 15:06:29.682, 1560513989682
0, -52734.47, 177246.00, -181640.75, -24902.44, 74706.95, 152343.70, -187490.56, 93749.90, -1.024, 0.000, 0.000, 15:06:29.682, 1560513989682
0, -51269.63, 181640.53, -178711.06, -13183.68, 83496.01, 159667.92, -184561.23, 5859.26, -0.992, 0.000, 0.000, 15:06:29.682, 1560513989682
0, -49804.78, 184570.22, -172851.69, -24902.44, 77636.63, 152343.70, -183096.63, -62988.40, -1.120, 0.000, 0.000, 15:06:29.682, 1560513989682
0, -48339.94, 184570.22, -175781.38, -16113.37, 89355.39, 164062.45, -178701.63, 77636.62, -0.864, 0.000, 0.000, 15:06:29.682, 1560513989682
0, -46875.09, 183105.38, -156738.41, -8789.15, 101074.14, 159667.92, -178701.34, 83495.99, -1.056, 0.000, 0.000, 15:06:29.682, 1560513989682
0, -45410.25, 183105.38, -180175.91, -2929.78, 95214.77, 150878.86, -178701.61, 57128.80, -1.184, 0.000, 0.000, 15:06:29.682, 1560513989682
0, -43945.41, 180175.69, -162597.78, -10254.00, 89355.39, 153808.55, -162588.64, 169921.78, -1.184, 2.560, 3.100, 15:06:29.682, 1560513989682
176, -42480.56, 180175.69, -156738.41, -20507.90, 92285.08, 150878.86, -166983.48, 121581.93, -0.704, 0.000, 0.000, 15:06:29.682, 1560513989682
0, -41015.72, 177246.00, -145019.66, -27832.12, 93749.92, 149414.02, -165518.11, 137695.22, -0.640, 0.000, 0.000, 15:06:29.682, 1560513989682
0, -39550.88, 180175.69, -142089.97, -14648.53, 93749.92, 162597.61, -178701.36, -27832.14, -0.512, 0.000, 0.000, 15:06:29.682, 1560513989682
0, -38086.03, 177246.00, -152343.88, -17578.22, 95214.77, 155273.39, -166982.80, -39550.89, -0.448, 0.000, 0.000, 15:06:29.682, 1560513989682
0, -36621.19, 178710.84, -165527.47, -27832.12, 99609.30, 146484.31, -181631.66, -52734.49, -0.704, 0.000, 0.000, 15:06:29.682, 1560513989682
0, -35156.34, 181640.53, -169922.00, -24902.44, 79101.48, 156738.23, 180184.63, 36620.98, -0.768, 0.000, 0.000, 15:06:29.683, 1560513989683
0, -33691.50, 183105.38, -156738.41, -16113.37, 67382.73, 159667.92, -186025.84, 149413.97, -0.864, 0.000, 0.000, 15:06:29.683, 1560513989683
0, -32226.65, 181640.53, -162597.78, -23437.59, 82031.16, 145019.47, -181631.03, -35156.36, -0.864, 0.000, 0.000, 15:06:29.683, 1560513989683
0, -30761.81, 181640.53, -162597.78, -20507.90, 90820.23, 150878.86, -186025.67, 168456.94, -0.544, 1.024, -4.068, 15:06:29.683, 1560513989683
208, -29296.97, 180175.69, -166992.31, -24902.44, 80566.32, 158203.08, -171377.70, -125976.69, -0.640, 0.000, 0.000, 15:06:29.683, 1560513989683
0, -27832.12, 181640.53, -169922.00, -33691.50, 80566.32, 159667.92, 186044.00, -155273.56, -0.960, 0.000, 0.000, 15:06:29.683, 1560513989683
0, -26367.28, 183105.38, -169922.00, -23437.59, 96679.61, 149414.02, -180166.52, 90820.21, -0.832, 0.000, 0.000, 15:06:29.683, 1560513989683
0, -24902.44, 184570.22, -166992.31, -24902.44, 84960.85, 158203.08, 183115.14, -87890.74, -0.608, 0.000, 0.000, 15:06:29.683, 1560513989683
0, -23437.59, 183105.38, -162597.78, -19043.06, 77636.63, 162597.61, -177236.55, -104004.02, -0.864, 0.000, 0.000, 15:06:30.153, 1560513990153
0, -21972.75, 178710.84, -153808.72, -21972.75, 83496.01, 159667.92, -178701.92, -121582.16, -0.768, 0.000, 0.000, 15:06:30.153, 1560513990153
0, -20507.90, 177246.00, -145019.66, -23437.59, 76171.79, 149414.02, -183096.72, -156738.41, -0.800, 0.000, 0.000, 15:06:30.153, 1560513990153
0, -19043.06, 177246.00, -159668.09, -24902.44, 93749.92, 152343.70, -177236.88, 46874.89, -0.640, 0.000, 0.000, 15:06:30.153, 1560513990153
0, -17578.22, 183105.38, -169922.00, -16113.37, 104003.83, 152343.70, -186025.67, 71777.23, -0.768, 0.000, 0.000, 15:06:30.153, 1560513990153
0, -16113.37, 184570.22, -164062.63, -17578.22, 95214.77, 162597.61, -175771.81, -76171.99, -0.256, 1.536, -3.044, 15:06:30.153, 1560513990153
192, -14648.53, 180175.69, -166992.31, -17578.22, 79101.48, 158203.08, -174307.38, 101074.12, -0.640, 0.000, 0.000, 15:06:30.154, 1560513990154
0, -13183.68, 180175.69, -155273.56, -20507.90, 96679.61, 146484.31, -172842.77, -43945.43, -0.512, 0.000, 0.000, 15:06:30.154, 1560513990154
0, -11718.84, 183105.38, -150879.03, -5859.46, 101074.14, 152343.70, -171377.45, 55663.96, -0.320, 0.000, 0.000, 15:06:30.154, 1560513990154
0, -10254.00, 184570.22, -143554.81, -7324.31, 84960.85, 158203.08, -158193.48, -83496.21, -0.480, 0.000, 0.000, 15:06:30.154, 1560513990154
0, -8789.15, 181640.53, -153808.72, -23437.59, 95214.77, 158203.08, -169912.34, -161132.94, -0.768, 0.000, 0.000, 15:06:30.155, 1560513990155
0, -7324.31, 181640.53, -155273.56, -20507.90, 93749.92, 142089.78, -181631.45, 153808.50, -0.960, 0.000, 0.000, 15:06:30.156, 1560513990156
0, -5859.46, 180175.69, -162597.78, -10254.00, 93749.92, 140624.94, -186026.19, -20507.93, -1.120, 0.000, 0.000, 15:06:30.156, 1560513990156
0, -4394.62, 183105.38, -162597.78, -23437.59, 92285.08, 147949.16, -172842.19, 86425.68, -0.864, 0.000, 0.000, 15:06:30.156, 1560513990156
0, -2929.78, 183105.38, -166992.31, -24902.44, 79101.48, 150878.86, -152334.22, -169922.00, -0.960, 0.000, 0.000, 15:06:30.156, 1560513990156
0, -1464.93, 180175.69, -162597.78, -30761.81, 79101.48, 140624.94, -158193.70, 92285.05, -0.960, 1.024, -3.044, 15:06:30.156, 1560513990156
176, -0.09, 180175.69, -161132.94, -13183.68, 101074.14, 145019.47, -175772.22, -46875.12, -0.832, 0.000, 0.000, 15:06:30.157, 1560513990157
0, 1464.75, 178710.84, -164062.63, -20507.90, 96679.61, 149414.02, -181631.77, 156738.19, -0.864, 0.000, 0.000, 15:06:30.157, 1560513990157
0, 2929.60, 184570.22, -169922.00, -2929.78, 93749.92, 159667.92, -178701.59, 186035.06, -1.056, 0.000, 0.000, 15:06:30.157, 1560513990157
0, 4394.44, 184570.22, -165527.47, -17578.22, 92285.08, 153808.55, 186044.84, -95214.96, -0.800, 0.000, 0.000, 15:06:30.157, 1560513990157
0, 5859.29, 180175.69, -169922.00, -13183.68, 80566.32, 155273.39, 184579.88, 183105.38, -0.736, 0.000, 0.000, 15:06:30.157, 1560513990157
0, 7324.13, 181640.53, -159668.09, -19043.06, 93749.92, 161132.77, -169912.80, 35156.14, -0.800, 0.000, 0.000, 15:06:30.157, 1560513990157
0, 8788.97, 178710.84, -162597.78, -16113.37, 84960.85, 158203.08, -169913.11, 57128.80, -1.024, 0.000, 0.000, 15:06:30.157, 1560513990157
0, 10253.82, 180175.69, -155273.56, -23437.59, 84960.85, 165527.30, -168447.70, 71777.23, -0.832, 0.000, 0.000, 15:06:30.157, 1560513990157
0, 11718.66, 181640.53, -177246.22, -17578.22, 84960.85, 140624.94, -174306.75, -14648.55, -0.736, 0.000, 0.000, 15:06:30.157, 1560513990157
0, 13183.51, 181640.53, -168457.16, -10254.00, 64453.04, 143554.63, -177236.47, 128906.15, -0.640, 0.000, -3.044, 15:06:30.157, 1560513990157
176, 14648.35, 181640.53, -171386.84, -2929.78, 79101.48, 164062.45, -174307.19, 95214.74, -0.992, 0.000, 0.000, 15:06:30.157, 1560513990157
0, 16113.19, 180175.69, -171386.84, -23437.59, 92285.08, 159667.92, -175772.38, 89355.37, -0.800, 0.000, 0.000, 15:06:30.157, 1560513990157
0, 17578.04, 181640.53, -149414.19, -24902.44, 93749.92, 158203.08, -174307.13, 39550.67, -0.704, 0.000, 0.000, 15:06:30.157, 1560513990157
0, 19042.88, 184570.22, -156738.41, -20507.90, 86425.70, 169921.83, -171377.09, -150879.03, -0.544, 0.000, 0.000, 15:06:30.157, 1560513990157
0, 20507.72, 184570.22, -165527.47, -39550.88, 84960.85, 149414.02, -172841.98, -158203.25, -0.704, 0.000, 0.000, 15:06:30.158, 1560513990158
0, 21972.57, 178710.84, -162597.78, -27832.12, 92285.08, 147949.16, 186044.45, 35156.14, -0.544, 0.000, 0.000, 15:06:30.158, 1560513990158
0, 23437.41, 181640.53, -152343.88, -5859.46, 95214.77, 136230.41, -181631.61, 99609.27, -0.608, 0.000, 0.000, 15:06:30.158, 1560513990158
0, 24902.26, 187499.91, -146484.50, -17578.22, 89355.39, 139160.09, 181650.13, 106933.49, -0.864, 0.000, 0.000, 15:06:30.158, 1560513990158
0, 26367.10, 184570.22, -137695.44, -33691.50, 99609.30, 158203.08, -183095.67, 131835.84, -1.024, 0.000, 0.000, 15:06:30.158, 1560513990158
0, 27831.94, 180175.69, -153808.72, -23437.59, 90820.23, 150878.86, -181631.03, 112792.87, -0.768, -0.512, -2.532, 15:06:30.158, 1560513990158
176, 29296.79, 181640.53, -164062.63, -8789.15, 101074.14, 150878.86, 184579.53, 114257.71, -0.896, 0.000, 0.000, 15:06:30.158, 1560513990158
0, 30761.63, 181640.53, -168457.16, -14648.53, 80566.32, 147949.16, 186044.05, -52734.49, -0.960, 0.000, 0.000, 15:06:30.158, 1560513990158
0, 32226.48, 180175.69, -155273.56, -33691.50, 74706.95, 134765.56, 177255.41, 150878.81, -0.736, 0.000, 0.000, 15:06:30.158, 1560513990158
0, 33691.32, 181640.53, -166992.31, -35156.34, 71777.26, 146484.31, 178720.75, 117187.40, -0.864, 0.000, 0.000, 15:06:30.158, 1560513990158
0, 35156.16, 180175.69, -168457.16, -20507.90, 87890.54, 166992.14, -171377.14, 36620.98, -0.736, 0.000, 0.000, 15:06:30.158, 1560513990158
0, 36621.01, 181640.53, -169922.00, -26367.28, 86425.70, 181640.58, -181631.50, -61523.55, -0.544, 0.000, 0.000, 15:06:30.158, 1560513990158
0, 38085.85, 183105.38, -164062.63, -7324.31, 89355.39, 152343.70, 186044.02, 156738.19, -0.576, 0.000, 0.000, 15:06:30.158, 1560513990158
0, 39550.70, 181640.53, -159668.09, -2929.78, 92285.08, 140624.94, -175771.92, 125976.46, -0.896, 0.000, 0.000, 15:06:30.159, 1560513990159
0, 41015.54, 181640.53, -159668.09, -11718.84, 79101.48, 143554.63, 183115.14, -142089.97, -0.960, 0.000, 0.000, 15:06:30.159, 1560513990159
0, 42480.38, 178710.84, -142089.97, -38086.03, 86425.70, 147949.16, -178701.34, -162597.78, -0.640, 0.000, -1.508, 15:06:30.159, 1560513990159
208, 43945.23, 181640.53, -145019.66, -16113.37, 108398.36, 136230.41, -180166.61, 147949.13, -0.672, 0.000, 0.000, 15:06:30.159, 1560513990159
0, 45410.07, 180175.69, -162597.78, -21972.75, 106933.52, 158203.08, -184561.36, -33691.52, -0.736, 0.000, 0.000, 15:06:30.159, 1560513990159
0, 46874.91, 178710.84, -174316.53, -29296.97, 101074.14, 159667.92, -174306.91, 52734.27, -0.768, 0.000, 0.000, 15:06:30.159, 1560513990159
0, 48339.76, 184570.22, -158203.25, -14648.53, 89355.39, 145019.47, -177236.31, -46875.12, -0.704, 0.000, 0.000, 15:06:30.159, 1560513990159
0, 49804.60, 187499.91, -152343.88, -13183.68, 104003.83, 152343.70, -183095.78, 82031.15, -0.704, 0.000, 0.000, 15:06:30.159, 1560513990159
0, 51269.45, 184570.22, -166992.31, -17578.22, 86425.70, 155273.39, -175772.06, -158203.25, -0.576, 0.000, 0.000, 15:06:30.159, 1560513990159
0, 52734.29, 180175.69, -158203.25, -16113.37, 96679.61, 166992.14, -168448.02, -177246.22, -0.640, 0.000, 0.000, 15:06:30.159, 1560513990159
0, 54199.13, 184570.22, -156738.41, -13183.68, 90820.23, 159667.92, -174306.94, -0.11, -0.480, 0.000, 0.000, 15:06:30.159, 1560513990159
0, 55663.98, 184570.22, -159668.09, -16113.37, 84960.85, 145019.47, -181630.81, 73242.08, -0.704, 0.000, 0.000, 15:06:30.159, 1560513990159
0, 57128.82, 184570.22, -164062.63, -26367.28, 84960.85, 140624.94, -178701.30, 156738.19, -0.672, -0.512, -2.532, 15:06:30.159, 1560513990159
128, 58593.66, 181640.53, -161132.94, -24902.44, 82031.16, 142089.78, -180166.50, -158203.25, -0.800, 0.000, 0.000, 15:06:30.159, 1560513990159
0, 60058.51, 180175.69, -169922.00, -21972.75, 89355.39, 146484.31, 180184.78, 147949.13, -0.896, 0.000, 0.000, 15:06:30.159, 1560513990159
0, 61523.35, 180175.69, -162597.78, -23437.59, 96679.61, 158203.08, 183114.84, -133300.91, -0.640, 0.000, 0.000, 15:06:30.160, 1560513990160
0, 62988.20, 181640.53, -165527.47, -27832.12, 84960.85, 153808.55, -175771.50, 155273.34, -0.672, 0.000, 0.000, 15:06:30.160, 1560513990160
0, 64453.04, 187499.91, -165527.47, -27832.12, 67382.73, 140624.94, -174306.72, 178710.84, -0.960, 0.000, 0.000, 15:06:30.160, 1560513990160
0, 65917.88, 181640.53, -175781.38, -23437.59, 71777.26, 161132.77, -180166.50, -120117.31, -0.768, 0.000, 0.000, 15:06:30.160, 1560513990160
0, 67382.73, 180175.69, -164062.63, -10254.00, 77636.63, 165527.30, -175772.33, 76171.77, -0.640, 0.000, 0.000, 15:06:30.160, 1560513990160
0, 68847.57, 178710.84, -150879.03, -5859.46, 84960.85, 164062.45, -175771.91, 104003.80, -0.800, 0.000, 0.000, 15:06:30.160, 1560513990160
0, 70312.41, 181640.53, -158203.25, -20507.90, 82031.16, 164062.45, -166982.36, 117187.40, -0.960, 0.000, 0.000, 15:06:30.160, 1560513990160
0, 71777.26, 183105.38, -147949.34, -27832.12, 79101.48, 159667.92, -165517.61, 120117.09, -1.120, 0.512, -3.556, 15:06:30.160, 1560513990160
96, 73242.10, 181640.53, -150879.03, -16113.37, 79101.48, 158203.08, -162588.42, 62988.18, -1.120, 0.000, 0.000, 15:06:30.160, 1560513990160
0, 74706.95, 178710.84, -156738.41, -13183.68, 84960.85, 149414.02, -186026.25, -130371.22, -0.768, 0.000, 0.000, 15:06:30.160, 1560513990160
0, 76171.79, 181640.53, -155273.56, -17578.22, 89355.39, 143554.63, -161123.42, 134765.53, -0.896, 0.000, 0.000, 15:06:30.160, 1560513990160
0, 77636.63, 181640.53, -152343.88, -10254.00, 89355.39, 161132.77, -162587.91, 98144.43, -0.576, 0.000, 0.000, 15:06:30.161, 1560513990161
0, 79101.48, 177246.00, -162597.78, -8789.15, 90820.23, 153808.55, -171376.98, 95214.74, -0.864, 0.000, 0.000, 15:06:30.161, 1560513990161
0, 80566.32, 178710.84, -162597.78, -21972.75, 92285.08, 152343.70, -175771.86, -184570.44, -1.152, 0.000, 0.000, 15:06:30.161, 1560513990161
0, 82031.16, 180175.69, -164062.63, -33691.50, 98144.45, 174316.36, -166983.22, 21972.55, -1.024, 0.000, 0.000, 15:06:30.161, 1560513990161
0, 83496.01, 181640.53, -158203.25, -29296.97, 96679.61, 162597.61, -174307.02, 79101.46, -0.640, 0.000, 0.000, 15:06:30.161, 1560513990161
0, 84960.85, 184570.22, -159668.09, -32226.65, 87890.54, 152343.70, -178701.13, 101074.12, -0.576, 0.000, 0.000, 15:06:30.161, 1560513990161
0, 86425.70, 181640.53, -153808.72, -16113.37, 104003.83, 158203.08, -186025.50, 20507.70, -0.800, 1.536, -3.556, 15:06:30.161, 1560513990161
96, 87890.54, 181640.53, -145019.66, -16113.37, 98144.45, 159667.92, -181631.34, 169921.78, -0.576, 0.000, 0.000, 15:06:30.161, 1560513990161
0, 89355.39, 177246.00, -153808.72, -16113.37, 96679.61, 143554.63, -187491.02, 10253.79, -0.416, 0.000, 0.000, 15:06:30.161, 1560513990161
0, 90820.23, 177246.00, -156738.39, 1464.75, 104003.83, 159667.92, -183096.08, 39550.67, -0.960, 0.000, 0.000, 15:06:30.161, 1560513990161
0, 92285.08, 184570.22, -153808.72, -5859.46, 82031.16, 153808.55, -169911.97, 117187.40, -0.832, 0.000, 0.000, 15:06:30.161, 1560513990161
0, 93749.92, 181640.53, -155273.56, -14648.53, 86425.70, 158203.08, -186025.45, -57129.02, -0.864, 0.000, 0.000, 15:06:30.161, 1560513990161
0, 95214.77, 183105.38, -153808.72, -27832.12, 84960.85, 143554.63, -183096.16, 51269.42, -0.576, 0.000, 0.000, 15:06:30.161, 1560513990161
0, 96679.61, 184570.22, -164062.63, -20507.90, 93749.92, 139160.09, -181631.56, -161132.94, -0.832, 0.000, 0.000, 15:06:30.161, 1560513990161
0, 98144.45, 183105.38, -156738.41, -29296.97, 84960.85, 149414.02, -186025.73, 153808.50, -0.928, 0.000, 0.000, 15:06:30.161, 1560513990161
0, 99609.30, 184570.22, -152343.88, -30761.81, 77636.63, 150878.86, -183095.66, 156738.19, -0.864, 0.000, 0.000, 15:06:30.162, 1560513990162
0, 101074.14, 181640.53, -159668.09, -23437.59, 79101.48, 166992.14, -174306.63, -73242.30, -0.800, 0.000, -2.532, 15:06:30.162, 1560513990162
144, 102538.98, -186035.28, -164062.63, -24902.44, 84960.85, 155273.39, -174307.08, -102539.18, -0.736, 0.000, 0.000, 15:06:30.162, 1560513990162
0, 104003.83, -186035.28, -162597.78, -27832.12, 96679.61, 147949.16, -178701.81, -17578.24, -0.480, 0.000, 0.000, 15:06:30.162, 1560513990162
0, 105468.67, 181640.53, -140625.13, -17578.22, 96679.61, 156738.23, 183114.98, -43945.43, -0.288, 0.000, 0.000, 15:06:30.162, 1560513990162
0, 106933.52, 181640.53, -153808.72, -16113.37, 68847.57, 162597.61, 183115.41, 36620.98, -0.736, 0.000, 0.000, 15:06:30.162, 1560513990162
0, 108398.36, 181640.53, -150879.03, -24902.44, 83496.01, 164062.45, -171376.86, 33691.30, -0.768, 0.000, 0.000, 15:06:30.162, 1560513990162
0, 109863.20, 177246.00, -145019.66, -17578.22, 70312.41, 152343.70, -171377.41, 80566.30, -0.768, 0.000, 0.000, 15:06:30.162, 1560513990162
0, 111328.05, 177246.00, -162597.78, -30761.81, 82031.16, 159667.92, -178701.91, -147949.34, -0.704, 0.000, 0.000, 15:06:30.162, 1560513990162
0, 112792.89, 183105.38, -156738.41, -17578.22, 84960.85, 145019.47, -174307.02, 187499.91, -0.704, 0.000, 0.000, 15:06:30.162, 1560513990162
0, 114257.73, 180175.69, -156738.41, -20507.90, 79101.48, 145019.47, -178701.13, 13183.48, -0.640, 0.000, 0.000, 15:06:30.162, 1560513990162
0, 115722.58, 181640.53, -169922.00, -10254.00, 86425.70, 158203.08, -181630.88, -181640.75, -0.544, 0.512, -3.044, 15:06:30.162, 1560513990162
192, 117187.42, 181640.53, -159668.09, -20507.90, 86425.70, 171386.67, -175771.92, -17578.24, -0.736, 0.000, 0.000, 15:06:30.162, 1560513990162
0, 118652.27, 178710.84, -147949.34, -24902.44, 84960.85, 166992.14, -168447.97, -172851.69, -1.184, 0.000, 0.000, 15:06:30.162, 1560513990162
0, 120117.11, 181640.53, -155273.56, -26367.28, 96679.61, 164062.45, -159658.48, 58593.64, -1.056, 0.000, 0.000, 15:06:30.162, 1560513990162
0, 121581.95, 177246.00, -147949.34, -27832.12, 92285.08, 158203.08, -175771.45, 84960.84, -0.736, 0.000, 0.000, 15:06:30.163, 1560513990163
0, 123046.80, 175781.16, -153808.72, -26367.28, 96679.61, 142089.78, -169912.19, 8788.95, -0.640, 0.000, 0.000, 15:06:30.163, 1560513990163
0, 124511.64, 180175.69, -152343.88, -23437.59, 108398.36, 142089.78, -165518.03, -11718.86, -0.736, 0.000, 0.000, 15:06:30.163, 1560513990163
0, 125976.48, 181640.53, -156738.41, -16113.37, 89355.39, 155273.39, -158194.08, -43945.43, -1.280, 0.000, 0.000, 15:06:30.163, 1560513990163
0, 127441.33, 180175.69, -150879.03, -1464.93, 95214.77, 152343.70, -159658.50, 35156.14, -0.928, 0.000, 0.000, 15:06:30.163, 1560513990163
0, 128906.17, 181640.53, -164062.63, -23437.59, 102538.98, 142089.78, -174306.59, -133300.91, -0.576, 0.512, -3.556, 15:06:30.163, 1560513990163
192, 130371.02, 181640.53, -150879.03, -24902.44, 99609.30, 149414.02, -186025.53, -70312.62, -0.800, 0.000, 0.000, 15:06:30.163, 1560513990163
0, 131835.86, 181640.53, -162597.78, -20507.90, 96679.61, 152343.70, -177236.78, -130371.22, -0.608, 0.000, 0.000, 15:06:30.163, 1560513990163
0, 133300.70, 180175.69, -161132.94, -20507.90, 90820.23, 153808.55, -162588.50, 17578.02, -0.736, 0.000, 0.000, 15:06:30.163, 1560513990163
0, 134765.55, 181640.53, -156738.41, -13183.68, 89355.39, 149414.02, -171377.28, -10254.02, -0.800, 0.000, 0.000, 15:06:30.163, 1560513990163
0, 136230.39, 184570.22, -156738.41, -17578.22, 101074.14, 152343.70, -174306.52, 178710.84, -0.704, 0.000, 0.000, 15:06:30.163, 1560513990163
0, 137695.23, 180175.69, -166992.31, -13183.68, 87890.54, 150878.86, -168447.33, -41015.74, -1.120, 0.000, 0.000, 15:06:30.163, 1560513990163
0, 139160.08, 180175.69, -156738.41, -17578.22, 86425.70, 159667.92, -180166.30, 158203.03, -0.512, 0.000, 0.000, 15:06:30.163, 1560513990163
0, 140624.92, 181640.53, -156738.41, -24902.44, 99609.30, 152343.70, -175772.19, -164062.63, -0.544, 0.000, 0.000, 15:06:30.163, 1560513990163
0, 142089.77, 177246.00, -149414.19, -20507.90, 89355.39, 155273.39, -175771.75, -73242.30, -1.088, 0.000, 0.000, 15:06:30.164, 1560513990164
0, 143554.61, 177246.00, -156738.41, -20507.90, 86425.70, 155273.39, -184560.45, 76171.77, -0.928, 0.512, -3.556, 15:06:30.164, 1560513990164
224, 145019.45, 181640.53, -164062.63, -32226.65, 93749.92, 142089.78, 183115.34, 16113.17, -1.056, 0.000, 0.000, 15:06:30.164, 1560513990164
0, 146484.30, 181640.53, -162597.78, -23437.59, 93749.92, 152343.70, -178701.50, -2929.80, -0.704, 0.000, 0.000, 15:06:30.164, 1560513990164
0, 147949.14, 183105.38, -159668.09, -10254.00, 74706.95, 152343.70, -175772.19, 57128.80, -0.480, 0.000, 0.000, 15:06:30.164, 1560513990164
0, 149413.98, 184570.22, -166992.31, -17578.22, 74706.95, 164062.45, -177236.75, 58593.64, -0.736, 0.000, 0.000, 15:06:30.164, 1560513990164
0, 150878.83, 184570.22, -169922.00, -1464.93, 93749.92, 165527.30, -169912.08, 99609.27, -0.864, 0.000, 0.000, 15:06:30.164, 1560513990164
79, 164642.91, 97064.70, 47368.24, 47156.59, 47443.81, 142721.73, 148567.50, 15102.94, 1.032, 3.564, 3.661, 15:06:48.514, 1560514008514
32, 145598.19, 107324.00, 47152.34, 75102.15, 15084.95, 121875.38, 105653.38, 148626.78, 3.181, 1.033, 2.183, 15:06:48.515, 1560514008515
0, -1882.58, 405.57, 7402.88, 4804.73, -18251.70, 1782.51, 2425.01, 2505.61, 0.008, 0.026, -0.522, 15:06:48.997, 1560514008997
1, -1757.47, 525.47, 7511.93, 4917.05, -18131.27, 1886.60, 2539.96, 2615.91, 0.000, 0.000, 0.000, 15:06:48.998, 1560514008998
2, -1766.48, 523.95, 7503.57, 4913.76, -18142.04, 1880.18, 2535.16, 2616.41, 0.000, 0.000, 0.000, 15:06:48.998, 1560514008998
3, -1850.26, 446.01, 7436.96, 4847.22, -18220.67, 1816.17, 2462.87, 2550.69, 0.000, 0.000, 0.000, 15:06:48.998, 1560514008998
4, -1948.87, 344.26, 7333.03, 4755.94, -18323.33, 1727.97, 2363.21, 2455.74, 0.000, 0.000, 0.000, 15:06:48.998, 1560514008998
5, -1871.06, 416.93, 7402.14, 4817.54, -18244.92, 1790.75, 2428.27, 2513.43, 0.000, 0.000, 0.000, 15:06:48.998, 1560514008998
6, -1761.05, 518.94, 7507.64, 4921.16, -18128.92, 1891.72, 2536.68, 2620.50, 0.000, 0.000, 0.000, 15:06:48.998, 1560514008998
7, -1768.74, 507.99, 7516.06, 4920.92, -18131.22, 1892.50, 2536.45, 2625.28, 0.010, 0.036, -0.782, 15:06:48.998, 1560514008998
8, -1841.36, 437.45, 7455.98, 4855.56, -18204.11, 1832.08, 2468.10, 2562.87, 0.000, 0.000, 0.000, 15:06:48.998, 1560514008998
9, -1940.71, 343.70, 7353.88, 4761.46, -18302.32, 1745.36, 2376.08, 2471.05, 0.000, 0.000, 0.000, 15:06:48.999, 1560514008999
10, -1869.30, 414.36, 7414.95, 4818.54, -18230.80, 1801.89, 2435.96, 2522.68, 0.000, 0.000, 0.000, 15:06:48.999, 1560514008999
11, -1746.05, 542.66, 7531.91, 4934.48, -18104.15, 1911.25, 2554.98, 2637.48, 0.000, 0.000, 0.000, 15:06:48.999, 1560514008999
12, -1751.48, 546.92, 7525.65, 4933.28, -18111.04, 1908.57, 2555.12, 2640.39, 0.000, 0.000, 0.000, 15:06:48.999, 1560514008999
13, -1817.44, 491.49, 7461.97, 4870.31, -18183.97, 1848.44, 2488.55, 2577.67, 0.000, 0.000, 0.000, 15:06:48.999, 1560514008999
14, -1925.65, 372.96, 7365.77, 4778.76, -18291.01, 1756.29, 2385.02, 2476.10, 0.000, 0.000, 0.000, 15:06:48.999, 1560514008999
15, -1862.79, 416.28, 7419.59, 4837.97, -18226.93, 1810.22, 2440.81, 2527.69, 0.000, 0.000, 0.000, 15:06:48.999, 1560514008999
16, -1750.19, 547.71, 7529.54, 4939.27, -18109.43, 1913.78, 2553.98, 2639.70, 0.000, 0.000, 0.000, 15:06:49.000, 1560514009000
17, -1758.95, 534.74, 7524.33, 4945.23, -18119.46, 1911.77, 2551.09, 2639.92, 0.008, 0.040, -0.908, 15:06:49.000, 1560514009000
18, -1820.04, 456.18, 7468.34, 4882.16, -18190.23, 1851.80, 2485.60, 2578.47, 0.000, 0.000, 0.000, 15:06:49.000, 1560514009000
19, -1919.75, 363.57, 7371.67, 4786.36, -18289.29, 1762.43, 2390.14, 2483.06, 0.000, 0.000, 0.000, 15:06:49.000, 1560514009000
20, -1860.09, 435.17, 7429.90, 4837.74, -18219.40, 1815.50, 2449.55, 2535.34, 0.000, 0.000, 0.000, 15:06:49.000, 1560514009000
21, -1735.68, 559.17, 7536.29, 4937.79, -18102.63, 1912.50, 2558.43, 2640.84, 0.000, 0.000, 0.000, 15:06:49.000, 1560514009000
22, -1739.84, 552.98, 7524.56, 4934.39, -18107.10, 1907.59, 2558.74, 2642.78, 0.000, 0.000, 0.000, 15:06:49.000, 1560514009000
23, -1810.83, 472.34, 7462.35, 4876.99, -18177.31, 1849.27, 2496.31, 2584.71, 0.000, 0.000, 0.000, 15:06:49.000, 1560514009000
24, -1916.82, 352.84, 7360.27, 4772.46, -18291.44, 1750.23, 2389.60, 2481.24, 0.000, 0.000, 0.000, 15:06:49.001, 1560514009001
25, -1860.47, 415.65, 7410.32, 4818.39, -18232.54, 1800.16, 2440.10, 2525.72, 0.000, 0.000, 0.000, 15:06:49.001, 1560514009001
26, -1745.00, 547.98, 7517.47, 4929.30, -18112.04, 1904.91, 2555.21, 2636.70, 0.004, 0.048, -0.974, 15:06:49.001, 1560514009001
27, -1751.42, 552.49, 7526.75, 4940.09, -18110.14, 1911.25, 2564.50, 2648.19, 0.000, 0.000, 0.000, 15:06:49.001, 1560514009001
28, -1825.24, 472.49, 7463.43, 4876.23, -18184.78, 1849.56, 2497.90, 2586.59, 0.000, 0.000, 0.000, 15:06:49.001, 1560514009001
29, -1932.40, 359.26, 7357.70, 4770.51, -18299.46, 1748.64, 2387.93, 2478.56, 0.000, 0.000, 0.000, 15:06:49.001, 1560514009001
30, -1864.90, 416.68, 7408.44, 4823.01, -18237.12, 1798.18, 2438.91, 2522.80, 0.000, 0.000, 0.000, 15:06:49.002, 1560514009002
31, -1754.81, 524.06, 7520.56, 4927.80, -18118.14, 1901.19, 2551.65, 2632.34, 0.000, 0.000, 0.000, 15:06:49.002, 1560514009002
32, -1757.76, 533.56, 7521.76, 4934.93, -18116.76, 1905.40, 2556.46, 2641.22, 0.000, 0.000, 0.000, 15:06:49.002, 1560514009002
33, -1810.65, 472.81, 7456.74, 4878.60, -18181.49, 1853.34, 2497.61, 2588.29, 0.000, 0.000, 0.000, 15:06:49.002, 1560514009002
34, -1916.93, 363.91, 7359.18, 4776.81, -18289.76, 1757.94, 2394.16, 2486.45, 0.000, 0.000, 0.000, 15:06:49.002, 1560514009002
35, -1869.92, 419.21, 7424.13, 4823.31, -18227.42, 1804.75, 2441.10, 2526.71, 0.000, 0.000, 0.000, 15:06:49.002, 1560514009002
36, -1747.84, 542.99, 7535.13, 4943.67, -18100.89, 1916.64, 2560.91, 2643.07, 0.002, 0.050, -1.004, 15:06:49.002, 1560514009002
37, -1745.25, 554.48, 7530.15, 4940.27, -18099.79, 1916.39, 2566.23, 2650.09, 0.000, 0.000, 0.000, 15:06:49.002, 1560514009002
38, -1816.46, 476.00, 7452.45, 4866.20, -18186.83, 1841.31, 2487.37, 2576.93, 0.000, 0.000, 0.000, 15:06:49.002, 1560514009002
39, -1926.81, 354.52, 7351.29, 4759.96, -18301.21, 1740.95, 2378.63, 2473.18, 0.000, 0.000, 0.000, 15:06:49.002, 1560514009002
40, -1880.14, 399.85, 7404.08, 4812.24, -18239.04, 1789.23, 2430.22, 2517.41, 0.000, 0.000, 0.000, 15:06:49.003, 1560514009003
41, -1768.45, 514.18, 7511.21, 4922.21, -18119.17, 1892.59, 2543.11, 2624.85, 0.000, 0.000, 0.000, 15:06:49.003, 1560514009003
42, -1768.63, 516.03, 7510.21, 4917.34, -18124.85, 1891.83, 2543.99, 2630.31, 0.000, 0.000, 0.000, 15:06:49.003, 1560514009003
43, -1819.41, 468.16, 7453.70, 4865.75, -18190.05, 1841.18, 2484.64, 2576.57, 0.000, 0.000, 0.000, 15:06:49.004, 1560514009004
44, -1915.61, 377.88, 7365.77, 4775.18, -18291.24, 1755.04, 2388.04, 2480.55, 0.000, 0.000, 0.000, 15:06:49.004, 1560514009004
45, -1869.25, 436.13, 7415.93, 4823.57, -18232.81, 1798.22, 2435.29, 2523.31, 0.000, 0.000, 0.000, 15:06:49.004, 1560514009004
46, -1751.01, 546.70, 7521.34, 4928.47, -18114.63, 1900.48, 2547.61, 2632.77, -0.002, 0.052, -1.018, 15:06:49.004, 1560514009004
47, -1754.23, 532.89, 7517.38, 4933.66, -18121.18, 1899.70, 2548.05, 2634.96, 0.000, 0.000, 0.000, 15:06:49.005, 1560514009005
48, -1826.38, 458.50, 7449.37, 4869.91, -18195.82, 1837.49, 2481.71, 2573.00, 0.000, 0.000, 0.000, 15:06:49.005, 1560514009005
49, -1923.86, 361.52, 7345.41, 4762.91, -18300.74, 1743.10, 2379.77, 2473.80, 0.000, 0.000, 0.000, 15:06:49.005, 1560514009005
50, -1868.76, 422.18, 7404.15, 4812.96, -18236.50, 1791.65, 2429.59, 2517.21, 0.000, 0.000, 0.000, 15:06:49.005, 1560514009005
51, -1745.76, 546.41, 7519.62, 4931.55, -18111.86, 1903.45, 2549.44, 2631.98, 0.000, 0.000, 0.000, 15:06:49.005, 1560514009005
52, -1750.01, 548.76, 7510.83, 4934.86, -18119.13, 1904.30, 2550.85, 2637.01, 0.000, 0.000, 0.000, 15:06:49.005, 1560514009005
53, -1815.16, 471.91, 7451.47, 4874.20, -18191.26, 1844.82, 2487.32, 2577.69, 0.000, 0.000, 0.000, 15:06:49.006, 1560514009006
54, -1929.42, 363.37, 7359.85, 4776.66, -18296.94, 1752.56, 2384.98, 2477.15, 0.000, 0.000, 0.000, 15:06:49.006, 1560514009006
55, -1871.87, 424.35, 7419.08, 4827.33, -18233.90, 1801.42, 2434.13, 2523.09, 0.000, 0.000, 0.000, 15:06:49.006, 1560514009006
56, -1751.68, 540.93, 7527.37, 4935.06, -18115.13, 1902.78, 2546.51, 2632.19, 0.002, 0.052, -1.026, 15:06:49.006, 1560514009006
57, -1762.57, 527.34, 7510.21, 4925.61, -18127.89, 1893.30, 2540.05, 2627.40, 0.000, 0.000, 0.000, 15:06:49.006, 1560514009006
58, -1827.84, 463.20, 7448.96, 4857.57, -18197.13, 1832.04, 2475.41, 2566.67, 0.000, 0.000, 0.000, 15:06:49.006, 1560514009006
59, -1932.40, 361.47, 7344.47, 4760.47, -18301.54, 1737.04, 2374.43, 2470.07, 0.000, 0.000, 0.000, 15:06:49.007, 1560514009007
60, -1874.10, 412.12, 7390.22, 4806.16, -18242.46, 1780.65, 2421.01, 2512.56, 0.000, 0.000, 0.000, 15:06:49.007, 1560514009007
61, -1763.26, 523.77, 7506.77, 4915.33, -18117.90, 1886.71, 2536.65, 2621.10, 0.000, 0.000, 0.000, 15:06:49.007, 1560514009007
62, -1761.83, 527.99, 7505.47, 4925.25, -18118.30, 1891.65, 2541.42, 2624.85, 0.000, 0.000, 0.000, 15:06:49.007, 1560514009007
63, -1820.59, 476.79, 7452.45, 4870.53, -18182.96, 1839.48, 2484.44, 2573.36, 0.000, 0.000, 0.000, 15:06:49.007, 1560514009007
64, -1919.25, 370.23, 7358.17, 4767.54, -18291.62, 1743.10, 2379.77, 2472.30, 0.000, 0.000, 0.000, 15:06:49.007, 1560514009007
65, -1862.79, 413.86, 7404.19, 4804.73, -18241.95, 1781.03, 2419.60, 2505.38, 0.000, 0.000, 0.000, 15:06:49.007, 1560514009007
66, -1750.07, 538.63, 7519.08, 4924.76, -18117.83, 1891.40, 2537.73, 2618.69, 0.006, 0.058, -1.032, 15:06:49.007, 1560514009007
67, -1757.90, 533.22, 7519.98, 4924.85, -18117.96, 1896.37, 2542.80, 2626.33, 0.000, 0.000, 0.000, 15:06:49.007, 1560514009007
68, -1826.52, 473.19, 7453.26, 4869.95, -18180.69, 1843.33, 2487.23, 2574.76, 0.000, 0.000, 0.000, 15:06:49.007, 1560514009007
69, -1923.77, 369.25, 7350.84, 4764.92, -18291.08, 1743.39, 2382.38, 2472.68, 0.000, 0.000, 0.000, 15:06:49.008, 1560514009008
70, -1871.71, 411.47, 7397.87, 4807.66, -18237.99, 1785.86, 2425.68, 2510.82, 0.000, 0.000, 0.000, 15:06:49.008, 1560514009008
71, -1761.70, 517.76, 7511.33, 4930.44, -18112.24, 1896.99, 2544.25, 2623.92, 0.000, 0.000, 0.000, 15:06:49.008, 1560514009008
72, -1769.88, 525.96, 7509.72, 4932.87, -18115.75, 1899.41, 2546.04, 2630.78, 0.000, 0.000, 0.000, 15:06:49.008, 1560514009008
73, -1838.86, 464.87, 7444.83, 4861.24, -18187.39, 1839.68, 2479.43, 2569.96, 0.000, 0.000, 0.000, 15:06:49.008, 1560514009008
74, -1946.90, 353.87, 7346.10, 4757.32, -18301.88, 1739.84, 2367.88, 2463.61, 0.000, 0.000, 0.000, 15:06:49.008, 1560514009008
75, -1903.34, 404.83, 7390.67, 4798.00, -18254.07, 1778.26, 2406.10, 2497.45, 0.000, 0.000, 0.000, 15:06:49.009, 1560514009009
76, -1782.24, 521.65, 7497.71, 4914.99, -18126.26, 1888.19, 2523.98, 2610.42, 0.002, 0.056, -1.032, 15:06:49.009, 1560514009009
77, -1771.98, 521.67, 7502.03, 4916.09, -18122.95, 1892.25, 2532.18, 2621.17, 0.000, 0.000, 0.000, 15:06:49.009, 1560514009009
78, -1822.87, 462.08, 7443.18, 4861.37, -18186.96, 1840.55, 2477.82, 2569.87, 0.000, 0.000, 0.000, 15:06:49.009, 1560514009009
79, -1932.04, 354.05, 7336.76, 4754.98, -18301.03, 1739.59, 2371.03, 2466.38, 0.000, 0.000, 0.000, 15:06:49.009, 1560514009009
80, -1889.57, 402.44, 7377.55, 4789.96, -18249.95, 1774.59, 2410.86, 2500.38, 0.000, 0.000, 0.000, 15:06:49.009, 1560514009009
81, -1773.70, 518.00, 7493.80, 4910.54, -18122.95, 1881.86, 2531.02, 2612.09, 0.000, 0.000, 0.000, 15:06:49.009, 1560514009009
82, -1774.77, 512.21, 7495.21, 4913.58, -18125.99, 1882.98, 2535.40, 2618.73, 0.000, 0.000, 0.000, 15:06:49.009, 1560514009009
83, -1835.82, 456.96, 7435.44, 4852.03, -18190.97, 1827.43, 2477.22, 2563.61, 0.000, 0.000, 0.000, 15:06:49.009, 1560514009009
84, -1939.80, 349.94, 7335.42, 4746.82, -18301.81, 1729.27, 2371.23, 2459.83, 0.000, 0.000, 0.000, 15:06:49.009, 1560514009009
85, -1907.10, 377.77, 7371.40, 4787.54, -18257.55, 1763.28, 2406.81, 2488.64, 0.000, 0.000, 0.000, 15:06:49.010, 1560514009010
86, -1782.91, 505.62, 7484.24, 4896.53, -18128.70, 1874.24, 2527.16, 2607.24, 0.006, 0.052, -1.032, 15:06:49.010, 1560514009010
87, -1782.82, 504.70, 7487.57, 4912.04, -18129.54, 1878.33, 2530.57, 2615.49, 0.000, 0.000, 0.000, 15:06:49.010, 1560514009010
88, -1839.06, 447.03, 7432.27, 4852.07, -18195.82, 1824.66, 2468.86, 2556.03, 0.000, 0.000, 0.000, 15:06:49.010, 1560514009010
89, -1942.08, 347.66, 7334.03, 4748.81, -18304.33, 1732.48, 2367.52, 2459.99, 0.000, 0.000, 0.000, 15:06:49.010, 1560514009010
90, -1906.13, 385.23, 7367.09, 4784.82, -18263.23, 1766.37, 2400.00, 2488.64, 0.000, 0.000, 0.000, 15:06:49.010, 1560514009010
91, -1784.14, 508.68, 7477.44, 4896.44, -18140.65, 1871.53, 2515.78, 2595.35, 0.000, 0.000, 0.000, 15:06:49.011, 1560514009011
92, -1774.80, 518.09, 7496.33, 4911.30, -18124.29, 1884.14, 2530.89, 2614.13, 0.000, 0.000, 0.000, 15:06:49.011, 1560514009011
93, -1837.56, 456.09, 7443.64, 4865.82, -18179.95, 1838.68, 2480.44, 2567.14, 0.000, 0.000, 0.000, 15:06:49.011, 1560514009011
94, -1951.51, 335.30, 7329.14, 4748.52, -18304.13, 1730.07, 2363.65, 2456.81, 0.000, 0.000, 0.000, 15:06:49.011, 1560514009011
95, -1910.67, 381.61, 7368.68, 4777.01, -18258.71, 1760.65, 2395.75, 2485.31, 0.000, 0.000, 0.000, 15:06:49.011, 1560514009011
96, -1780.85, 512.15, 7487.52, 4902.12, -18126.21, 1876.52, 2521.68, 2605.83, 0.004, 0.050, -1.028, 15:06:49.011, 1560514009011
97, -1778.13, 511.92, 7491.83, 4912.73, -18122.93, 1883.83, 2532.79, 2619.53, 0.000, 0.000, 0.000, 15:06:49.011, 1560514009011
98, -1841.96, 448.82, 7431.91, 4854.28, -18188.66, 1826.65, 2471.05, 2561.24, 0.000, 0.000, 0.000, 15:06:49.011, 1560514009011
99, -1947.49, 340.86, 7332.94, 4752.81, -18299.30, 1729.82, 2367.00, 2459.32, 0.000, 0.000, 0.000, 15:06:49.011, 1560514009011
100, -1907.52, 385.55, 7366.11, 4779.81, -18259.90, 1757.76, 2398.66, 2485.18, 0.000, 0.000, 0.000, 15:06:49.011, 1560514009011
101, -1779.06, 522.34, 7483.41, 4894.25, -18133.72, 1866.37, 2514.24, 2598.30, 0.000, 0.000, 0.000, 15:06:49.012, 1560514009012
102, -1767.82, 521.11, 7492.91, 4906.50, -18127.62, 1875.33, 2524.65, 2611.56, 0.000, 0.000, 0.000, 15:06:49.012, 1560514009012
103, -1837.40, 448.64, 7438.21, 4854.84, -18188.08, 1826.00, 2472.48, 2559.25, 0.000, 0.000, 0.000, 15:06:49.012, 1560514009012
104, -1942.34, 338.05, 7337.03, 4744.43, -18297.99, 1730.63, 2369.51, 2459.16, 0.000, 0.000, 0.000, 15:06:49.013, 1560514009013
105, -1902.63, 383.40, 7373.59, 4779.54, -18254.24, 1764.67, 2404.56, 2492.73, 0.000, 0.000, 0.000, 15:06:49.013, 1560514009013
106, -1779.11, 506.22, 7496.01, 4900.78, -18127.96, 1875.58, 2523.71, 2609.14, 0.004, 0.052, -1.028, 15:06:49.013, 1560514009013
107, -1773.07, 519.81, 7508.62, 4914.28, -18115.78, 1888.19, 2539.45, 2628.23, 0.000, 0.000, 0.000, 15:06:49.013, 1560514009013
108, -1831.75, 456.18, 7445.01, 4861.08, -18176.13, 1838.21, 2485.72, 2576.64, 0.000, 0.000, 0.000, 15:06:49.013, 1560514009013
109, -1937.27, 358.32, 7340.40, 4749.95, -18293.52, 1739.06, 2377.73, 2473.89, 0.000, 0.000, 0.000, 15:06:49.014, 1560514009014
110, -1901.51, 397.44, 7364.36, 4780.43, -18263.32, 1762.57, 2399.55, 2492.02, 0.000, 0.000, 0.000, 15:06:49.014, 1560514009014
111, -1778.62, 515.95, 7480.75, 4892.86, -18136.09, 1870.01, 2516.56, 2603.93, 0.000, 0.000, 0.000, 15:06:49.014, 1560514009014
112, -1767.84, 512.32, 7493.80, 4899.23, -18128.00, 1875.04, 2525.48, 2610.71, 0.000, 0.000, 0.000, 15:06:49.014, 1560514009014
113, -1834.34, 439.84, 7436.40, 4846.60, -18194.14, 1820.39, 2462.85, 2547.23, 0.000, 0.000, 0.000, 15:06:49.014, 1560514009014
114, -1953.56, 327.07, 7325.43, 4734.64, -18313.59, 1717.15, 2349.37, 2437.35, 0.000, 0.000, 0.000, 15:06:49.014, 1560514009014
115, -1922.74, 361.32, 7357.26, 4760.65, -18275.61, 1742.34, 2377.91, 2460.19, 0.000, 0.000, 0.000, 15:06:49.014, 1560514009014
116, -1785.75, 499.96, 7486.16, 4875.59, -18140.88, 1856.89, 2502.37, 2579.86, 0.002, 0.054, -1.030, 15:06:49.014, 1560514009014
117, -1773.36, 512.10, 7507.15, 4901.83, -18126.39, 1874.82, 2523.33, 2603.60, 0.000, 0.000, 0.000, 15:06:49.014, 1560514009014
118, -1833.78, 457.36, 7444.27, 4853.88, -18179.93, 1833.45, 2477.04, 2562.74, 0.000, 0.000, 0.000, 15:06:49.015, 1560514009015
119, -1948.38, 331.57, 7338.84, 4745.70, -18298.10, 1733.96, 2366.69, 2459.23, 0.000, 0.000, 0.000, 15:06:49.015, 1560514009015
120, -1914.07, 366.66, 7373.53, 4776.52, -18260.28, 1762.68, 2396.17, 2484.15, 0.000, 0.000, 0.000, 15:06:49.476, 1560514009476
121, -1781.26, 493.91, 7487.88, 4901.09, -18126.86, 1876.97, 2520.34, 2603.84, 0.000, 0.000, 0.000, 15:06:49.476, 1560514009476
122, -1768.36, 509.91, 7498.18, 4907.59, -18115.89, 1888.39, 2535.07, 2622.62, 0.000, 0.000, 0.000, 15:06:49.477, 1560514009477
123, -1837.63, 461.41, 7446.42, 4857.57, -18177.64, 1838.54, 2481.51, 2570.58, 0.000, 0.000, 0.000, 15:06:49.477, 1560514009477
124, -1940.98, 364.53, 7339.06, 4758.22, -18288.60, 1741.45, 2380.48, 2471.01, 0.000, 0.000, 0.000, 15:06:49.477, 1560514009477
125, -1902.00, 383.78, 7362.89, 4787.45, -18256.39, 1764.54, 2404.02, 2492.09, 0.000, 0.000, 0.000, 15:06:49.477, 1560514009477
126, -1782.84, 497.01, 7496.13, 4906.95, -18123.08, 1877.86, 2527.29, 2613.03, 0.002, 0.058, -1.028, 15:06:49.477, 1560514009477
127, -1777.88, 508.01, 7508.58, 4914.63, -18111.95, 1889.48, 2541.37, 2627.85, 0.000, 0.000, 0.000, 15:06:49.477, 1560514009477
128, -1832.04, 454.81, 7450.75, 4864.48, -18171.77, 1841.56, 2487.48, 2578.14, 0.000, 0.000, 0.000, 15:06:49.477, 1560514009477
129, -1931.95, 355.42, 7348.76, 4758.98, -18282.54, 1745.18, 2383.34, 2478.45, 0.000, 0.000, 0.000, 15:06:49.477, 1560514009477
130, -1907.94, 384.81, 7374.24, 4775.45, -18252.99, 1765.43, 2404.47, 2495.35, 0.000, 0.000, 0.000, 15:06:49.477, 1560514009477
131, -1776.54, 513.96, 7495.95, 4901.60, -18114.01, 1884.65, 2532.21, 2619.53, 0.000, 0.000, 0.000, 15:06:49.477, 1560514009477
132, -1759.89, 522.81, 7505.54, 4922.55, -18102.50, 1898.51, 2547.07, 2636.46, 0.000, 0.000, 0.000, 15:06:49.477, 1560514009477
133, -1825.36, 454.93, 7450.42, 4864.54, -18165.82, 1845.34, 2489.43, 2580.98, 0.000, 0.000, 0.000, 15:06:49.477, 1560514009477
134, -1940.56, 342.61, 7339.44, 4749.48, -18283.77, 1741.87, 2377.49, 2474.74, 0.000, 0.000, 0.000, 15:06:49.478, 1560514009478
135, -1905.13, 377.21, 7374.71, 4790.05, -18247.70, 1770.91, 2403.37, 2494.88, 0.004, 0.050, -1.032, 15:06:49.478, 1560514009478
136, -1784.61, 505.35, 7498.03, 4911.82, -18116.31, 1883.65, 2522.35, 2608.07, 0.000, 0.000, 0.000, 15:06:49.478, 1560514009478
137, -1773.66, 519.57, 7504.46, 4921.07, -18109.03, 1891.76, 2536.21, 2625.10, 0.000, 0.000, 0.000, 15:06:49.478, 1560514009478
138, -1821.53, 465.56, 7455.69, 4857.39, -18171.23, 1838.86, 2484.62, 2578.79, 0.000, 0.000, 0.000, 15:06:49.478, 1560514009478
139, -1929.42, 350.65, 7349.77, 4755.13, -18286.52, 1741.04, 2379.92, 2476.86, 0.000, 0.000, 0.000, 15:06:49.478, 1560514009478
140, -1911.28, 374.44, 7365.26, 4781.26, -18255.54, 1765.16, 2402.10, 2494.50, 0.000, 0.000, 0.000, 15:06:49.478, 1560514009478
141, -1780.03, 513.08, 7487.70, 4899.23, -18120.92, 1880.01, 2524.83, 2614.06, 0.000, 0.000, 0.000, 15:06:49.478, 1560514009478
142, -1771.38, 521.38, 7494.63, 4911.97, -18110.34, 1891.58, 2541.24, 2631.47, 0.000, 0.000, 0.000, 15:06:49.478, 1560514009478
143, -1828.33, 445.78, 7448.16, 4866.11, -18168.77, 1844.38, 2488.80, 2581.29, 0.000, 0.000, 0.000, 15:06:49.478, 1560514009478
144, -1938.61, 328.41, 7343.89, 4759.29, -18283.06, 1744.31, 2382.16, 2477.49, 0.000, 0.000, 0.000, 15:06:49.478, 1560514009478
145, -1925.42, 367.55, 7366.46, 4772.39, -18255.47, 1761.79, 2403.55, 2491.75, 0.004, 0.048, -1.030, 15:06:49.478, 1560514009478
146, -1799.07, 509.80, 7486.22, 4887.28, -18125.14, 1870.62, 2523.67, 2601.16, 0.000, 0.000, 0.000, 15:06:49.478, 1560514009478
147, -1771.02, 525.15, 7495.93, 4908.26, -18111.69, 1887.60, 2543.99, 2620.90, 0.000, 0.000, 0.000, 15:06:49.478, 1560514009478
148, -1828.06, 457.03, 7451.87, 4865.59, -18168.55, 1843.21, 2496.56, 2577.45, 0.000, 0.000, 0.000, 15:06:49.478, 1560514009478
149, -1935.64, 339.77, 7333.61, 4759.40, -18285.11, 1743.64, 2386.67, 2473.53, 0.000, 0.000, 0.000, 15:06:49.478, 1560514009478
150, -1920.71, 354.21, 7356.16, 4777.75, -18260.90, 1760.74, 2401.99, 2484.24, 0.000, 0.000, 0.000, 15:06:49.479, 1560514009479
151, -1793.19, 490.35, 7483.97, 4902.32, -18123.11, 1877.39, 2526.33, 2603.62, 0.000, 0.000, 0.000, 15:06:49.479, 1560514009479
152, -1781.23, 512.44, 7496.26, 4914.17, -18107.86, 1892.12, 2546.85, 2626.04, 0.000, 0.000, 0.000, 15:06:49.479, 1560514009479
153, -1834.16, 467.40, 7446.22, 4863.47, -18163.96, 1846.01, 2496.98, 2579.41, 0.000, 0.000, 0.000, 15:06:49.479, 1560514009479
154, -1948.71, 354.01, 7339.60, 4758.19, -18284.58, 1742.92, 2381.78, 2472.82, 0.000, 0.000, 0.000, 15:06:49.479, 1560514009479
155, -1913.44, 388.00, 7361.61, 4771.83, -18256.23, 1763.75, 2399.55, 2491.01, 0.004, 0.056, -1.028, 15:06:49.479, 1560514009479
156, -1775.67, 511.81, 7485.67, 4907.17, -18116.51, 1887.76, 2529.23, 2613.37, 0.000, 0.000, 0.000, 15:06:49.479, 1560514009479
157, -1769.97, 506.89, 7497.51, 4920.31, -18109.20, 1896.34, 2540.03, 2628.30, 0.000, 0.000, 0.000, 15:06:49.479, 1560514009479
158, -1824.91, 461.85, 7445.05, 4867.90, -18168.21, 1848.02, 2487.95, 2581.78, 0.000, 0.000, 0.000, 15:06:49.479, 1560514009479
159, -1934.48, 354.07, 7346.53, 4766.33, -18282.65, 1749.34, 2380.86, 2480.66, 0.000, 0.000, 0.000, 15:06:49.479, 1560514009479
160, -1906.34, 372.89, 7362.33, 4786.18, -18260.93, 1763.91, 2394.05, 2491.73, 0.000, 0.000, 0.000, 15:06:49.480, 1560514009480
161, -1778.39, 510.09, 7482.34, 4899.93, -18127.02, 1876.38, 2519.00, 2612.05, 0.000, 0.000, 0.000, 15:06:49.480, 1560514009480
162, -1773.12, 524.66, 7503.97, 4911.44, -18114.77, 1887.98, 2536.81, 2631.20, 0.000, 0.000, 0.000, 15:06:49.480, 1560514009480
163, -1834.56, 455.89, 7443.00, 4850.86, -18181.89, 1829.85, 2478.27, 2574.94, 0.000, 0.000, 0.000, 15:06:49.480, 1560514009480
164, -1928.75, 352.87, 7337.99, 4748.20, -18290.74, 1735.01, 2374.92, 2477.40, 0.000, 0.000, 0.000, 15:06:49.480, 1560514009480
165, -1914.23, 363.24, 7352.92, 4766.64, -18266.56, 1750.28, 2390.76, 2486.72, 0.000, 0.050, -1.036, 15:06:49.480, 1560514009480
166, -1788.07, 489.41, 7476.68, 4888.46, -18131.58, 1866.15, 2515.60, 2599.78, 0.000, 0.000, 0.000, 15:06:49.480, 1560514009480
167, -1772.74, 509.04, 7496.44, 4908.69, -18114.39, 1883.96, 2537.73, 2621.21, 0.000, 0.000, 0.000, 15:06:49.480, 1560514009480
168, -1831.90, 453.43, 7442.08, 4859.65, -18174.52, 1834.47, 2485.20, 2571.03, 0.000, 0.000, 0.000, 15:06:49.480, 1560514009480
169, -1943.44, 340.95, 7335.60, 4750.68, -18290.99, 1733.44, 2375.70, 2465.75, 0.000, 0.000, 0.000, 15:06:49.480, 1560514009480
170, -1920.01, 365.79, 7360.00, 4765.12, -18265.38, 1750.23, 2392.46, 2477.96, 0.000, 0.000, 0.000, 15:06:49.480, 1560514009480
171, -1787.56, 498.58, 7481.29, 4893.29, -18128.31, 1868.52, 2519.18, 2598.08, 0.000, 0.000, 0.000, 15:06:49.480, 1560514009480
172, -1772.29, 524.39, 7495.88, 4913.16, -18116.33, 1882.62, 2536.86, 2617.37, 0.000, 0.000, 0.000, 15:06:49.480, 1560514009480
173, -1827.57, 466.86, 7439.87, 4858.24, -18176.24, 1831.46, 2481.36, 2567.19, 0.000, 0.000, 0.000, 15:06:49.480, 1560514009480
174, -1930.52, 346.52, 7330.28, 4754.55, -18292.20, 1734.43, 2373.76, 2464.24, 0.000, 0.000, 0.000, 15:06:49.480, 1560514009480
175, -1911.72, 361.61, 7348.85, 4772.12, -18273.82, 1747.26, 2384.80, 2471.25, 0.000, 0.050, -1.026, 15:06:49.481, 1560514009481
176, -1784.97, 495.49, 7475.94, 4896.06, -18130.88, 1868.65, 2514.50, 2592.76, 0.000, 0.000, 0.000, 15:06:49.481, 1560514009481
177, -1766.84, 523.66, 7504.40, 4921.16, -18107.42, 1892.88, 2540.41, 2617.55, 0.000, 0.000, 0.000, 15:06:49.481, 1560514009481
178, -1820.37, 464.22, 7452.99, 4874.58, -18164.46, 1845.05, 2489.13, 2571.14, 0.000, 0.000, 0.000, 15:06:49.481, 1560514009481
179, -1940.00, 345.25, 7339.28, 4760.07, -18288.13, 1740.19, 2375.14, 2467.52, 0.000, 0.000, 0.000, 15:06:49.482, 1560514009482
180, -1930.45, 365.67, 7353.59, 4765.15, -18272.64, 1745.98, 2382.63, 2472.66, 0.000, 0.000, 0.000, 15:06:49.482, 1560514009482
181, -1799.45, 493.24, 7473.15, 4888.80, -18136.25, 1861.48, 2508.49, 2593.47, 0.000, 0.000, 0.000, 15:06:49.482, 1560514009482
182, -1764.94, 519.70, 7490.83, 4910.95, -18114.90, 1884.65, 2534.20, 2621.70, 0.000, 0.000, 0.000, 15:06:49.482, 1560514009482
183, -1806.24, 464.13, 7437.86, 4855.89, -18173.76, 1838.39, 2483.93, 2576.93, 0.000, 0.000, 0.000, 15:06:49.482, 1560514009482
184, -1939.37, 348.08, 7332.74, 4757.93, -18292.24, 1738.52, 2374.16, 2473.29, 0.000, 0.000, 0.000, 15:06:49.482, 1560514009482
185, -1935.97, 361.05, 7352.61, 4772.83, -18275.66, 1751.62, 2386.07, 2480.04, -0.002, 0.052, -1.032, 15:06:49.482, 1560514009482
186, -1792.81, 491.18, 7490.87, 4899.26, -18132.67, 1872.47, 2518.55, 2606.39, 0.000, 0.000, 0.000, 15:06:49.482, 1560514009482
187, -1773.43, 512.55, 7499.10, 4914.75, -18116.89, 1888.59, 2539.47, 2627.56, 0.000, 0.000, 0.000, 15:06:49.482, 1560514009482
188, -1827.90, 467.26, 7438.64, 4859.78, -18173.11, 1843.12, 2491.19, 2582.36, 0.000, 0.000, 0.000, 15:06:49.482, 1560514009482
189, -1940.78, 360.71, 7330.84, 4754.42, -18285.45, 1744.89, 2386.25, 2482.88, 0.000, 0.000, 0.000, 15:06:49.482, 1560514009482
190, -1927.93, 372.67, 7338.59, 4752.85, -18273.20, 1749.45, 2391.28, 2484.89, 0.000, 0.000, 0.000, 15:06:49.483, 1560514009483
191, -1796.88, 483.67, 7458.98, 4876.86, -18141.35, 1860.22, 2510.61, 2597.88, 0.000, 0.000, 0.000, 15:06:49.483, 1560514009483
192, -1774.66, 501.62, 7491.23, 4910.88, -18116.45, 1884.48, 2534.24, 2624.12, 0.000, 0.000, 0.000, 15:06:49.483, 1560514009483
193, -1833.29, 454.08, 7447.44, 4861.08, -18170.74, 1840.42, 2483.77, 2577.40, 0.000, 0.000, 0.000, 15:06:49.483, 1560514009483
194, -1946.88, 346.07, 7341.05, 4755.62, -18291.24, 1737.89, 2372.03, 2469.78, 0.000, 0.000, 0.000, 15:06:49.483, 1560514009483
195, -1926.09, 364.47, 7353.46, 4769.04, -18276.80, 1747.73, 2379.81, 2471.39, -0.002, 0.048, -1.038, 15:06:49.483, 1560514009483
196, -1782.31, 494.85, 7477.69, 4891.30, -18139.98, 1864.45, 2506.12, 2592.62, 0.000, 0.000, 0.000, 15:06:49.483, 1560514009483
197, -1757.79, 522.49, 7500.82, 4913.09, -18117.34, 1885.82, 2532.72, 2620.61, 0.000, 0.000, 0.000, 15:06:49.484, 1560514009484
198, -1824.37, 473.10, 7443.53, 4861.71, -18173.67, 1837.72, 2480.06, 2571.59, 0.000, 0.000, 0.000, 15:06:49.484, 1560514009484
199, -1927.08, 362.70, 7334.30, 4756.18, -18285.43, 1743.23, 2374.92, 2472.10, 0.000, 0.000, 0.000, 15:06:49.484, 1560514009484
200, -1912.17, 354.12, 7342.79, 4755.89, -18275.61, 1745.43, 2375.07, 2469.71, 0.000, 0.000, 0.000, 15:06:49.484, 1560514009484
201, -1797.12, 477.39, 7473.57, 4883.83, -18140.52, 1857.52, 2496.94, 2585.00, 0.000, 0.000, 0.000, 15:06:49.484, 1560514009484
202, -1781.43, 510.80, 7501.67, 4916.04, -18107.71, 1889.88, 2534.84, 2623.16, 0.000, 0.000, 0.000, 15:06:49.484, 1560514009484
203, -1840.35, 463.89, 7452.83, 4867.23, -18161.35, 1846.23, 2490.54, 2577.36, 0.000, 0.000, 0.000, 15:06:49.484, 1560514009484
204, -1949.97, 350.12, 7346.21, 4757.70, -18280.44, 1742.68, 2381.44, 2471.23, 0.000, 0.000, 0.000, 15:06:49.484, 1560514009484
205, -1937.20, 350.27, 7347.22, 4757.19, -18278.12, 1743.68, 2379.68, 2466.20, 0.000, 0.048, -1.030, 15:06:49.484, 1560514009484
206, -1805.08, 495.58, 7465.44, 4880.91, -18143.98, 1860.38, 2506.61, 2588.31, 0.000, 0.000, 0.000, 15:06:49.484, 1560514009484
207, -1777.66, 523.99, 7484.01, 4903.55, -18123.11, 1882.84, 2535.16, 2617.30, 0.000, 0.000, 0.000, 15:06:49.484, 1560514009484
208, -1818.65, 460.96, 7431.44, 4859.18, -18178.85, 1838.83, 2488.80, 2576.06, 0.000, 0.000, 0.000, 15:06:49.484, 1560514009484
209, -1930.99, 342.63, 7335.64, 4766.71, -18290.19, 1744.51, 2382.90, 2480.78, 0.000, 0.000, 0.000, 15:06:49.484, 1560514009484
210, -1925.36, 359.89, 7344.85, 4761.97, -18283.59, 1743.53, 2382.90, 2475.77, 0.000, 0.000, 0.000, 15:06:49.484, 1560514009484
211, -1794.31, 492.99, 7462.44, 4882.47, -18148.25, 1857.52, 2506.28, 2594.01, 0.000, 0.000, 0.000, 15:06:49.485, 1560514009485
212, -1761.45, 516.95, 7498.38, 4918.32, -18114.95, 1889.01, 2540.81, 2632.52, 0.000, 0.000, 0.000, 15:06:49.485, 1560514009485
213, -1817.89, 471.58, 7456.45, 4872.30, -18163.68, 1847.44, 2495.19, 2593.67, 0.000, 0.000, 0.000, 15:06:49.485, 1560514009485
214, -1938.70, 360.33, 7339.17, 4759.94, -18283.62, 1744.29, 2380.64, 2485.20, 0.000, 0.000, 0.000, 15:06:49.485, 1560514009485
215, -1936.49, 360.18, 7334.61, 4756.07, -18283.53, 1738.97, 2371.92, 2472.37, 0.004, 0.052, -1.036, 15:06:49.485, 1560514009485
216, -1804.28, 490.13, 7452.03, 4876.84, -18144.63, 1856.16, 2498.84, 2592.85, 0.000, 0.000, 0.000, 15:06:49.486, 1560514009486
217, -1770.41, 513.11, 7483.70, 4903.15, -18116.18, 1880.54, 2528.85, 2622.53, 0.000, 0.000, 0.000, 15:06:49.486, 1560514009486
218, -1824.77, 461.97, 7443.91, 4856.12, -18168.46, 1836.93, 2480.31, 2575.08, 0.000, 0.000, 0.000, 15:06:49.486, 1560514009486
219, -1940.87, 347.35, 7337.05, 4752.72, -18285.65, 1735.93, 2372.19, 2470.20, 0.000, 0.000, 0.000, 15:06:49.487, 1560514009487
220, -1939.93, 341.45, 7338.70, 4752.83, -18281.47, 1734.67, 2370.92, 2466.63, 0.000, 0.000, 0.000, 15:06:49.487, 1560514009487
221, -1804.30, 477.97, 7468.25, 4882.16, -18142.04, 1855.11, 2500.91, 2590.99, 0.000, 0.000, 0.000, 15:06:49.487, 1560514009487
222, -1769.61, 514.02, 7503.15, 4912.65, -18109.70, 1888.14, 2539.05, 2630.73, 0.000, 0.000, 0.000, 15:06:49.487, 1560514009487
223, -1820.88, 467.46, 7449.57, 4864.28, -18166.29, 1841.40, 2491.79, 2584.22, 0.000, 0.000, 0.000, 15:06:49.488, 1560514009488
224, -1936.53, 355.55, 7342.95, 4757.61, -18286.39, 1736.53, 2381.49, 2474.32, 0.000, 0.000, 0.000, 15:06:49.488, 1560514009488
225, -1937.47, 358.92, 7347.06, 4757.21, -18276.51, 1738.72, 2384.46, 2472.53, 0.004, 0.052, -1.040, 15:06:49.488, 1560514009488
226, -1797.84, 495.20, 7466.26, 4886.90, -18133.25, 1859.91, 2514.41, 2598.12, 0.000, 0.000, 0.000, 15:06:49.488, 1560514009488
227, -1767.93, 522.58, 7493.94, 4914.81, -18103.73, 1889.97, 2545.13, 2630.82, 0.000, 0.000, 0.000, 15:06:49.488, 1560514009488
228, -1822.27, 464.85, 7443.62, 4859.92, -18160.57, 1843.84, 2494.10, 2584.31, 0.000, 0.000, 0.000, 15:06:49.488, 1560514009488
229, -1941.61, 346.07, 7327.93, 4746.48, -18283.68, 1740.44, 2381.65, 2479.39, 0.000, 0.000, 0.000, 15:06:49.488, 1560514009488
230, -1944.42, 343.57, 7326.59, 4745.07, -18281.49, 1741.40, 2377.69, 2474.79, 0.000, 0.000, 0.000, 15:06:49.488, 1560514009488
231, -1808.79, 478.57, 7454.53, 4874.16, -18143.07, 1863.02, 2503.10, 2594.77, 0.000, 0.000, 0.000, 15:06:49.488, 1560514009488
232, -1772.09, 519.25, 7486.40, 4905.78, -18115.91, 1890.76, 2535.45, 2628.03, 0.000, 0.000, 0.000, 15:06:49.488, 1560514009488
233, -1813.11, 485.06, 7444.90, 4865.64, -18167.18, 1849.27, 2491.57, 2586.16, 0.000, 0.000, 0.000, 15:06:49.488, 1560514009488
234, -1930.01, 362.39, 7331.86, 4760.99, -18290.25, 1746.34, 2379.23, 2479.01, 0.000, 0.000, 0.000, 15:06:49.488, 1560514009488
235, -1928.98, 349.78, 7325.63, 4767.09, -18289.58, 1741.69, 2372.03, 2469.11, 0.002, 0.050, -1.042, 15:06:49.488, 1560514009488
236, -1804.70, 484.07, 7452.36, 4889.47, -18153.68, 1855.89, 2495.42, 2586.39, 0.000, 0.000, 0.000, 15:06:49.488, 1560514009488
237, -1774.82, 516.50, 7492.51, 4914.52, -18119.80, 1883.87, 2527.49, 2618.98, 0.000, 0.000, 0.000, 15:06:49.489, 1560514009489
238, -1820.01, 469.95, 7448.63, 4877.22, -18167.18, 1842.97, 2483.39, 2577.07, 0.000, 0.000, 0.000, 15:06:49.489, 1560514009489
239, -1924.51, 362.52, 7339.26, 4773.42, -18280.66, 1746.12, 2377.04, 2476.46, 0.000, 0.000, 0.000, 15:06:49.489, 1560514009489
240, -1932.15, 358.95, 7332.11, 4769.10, -18279.01, 1745.40, 2371.32, 2468.91, 0.000, 0.000, 0.000, 15:06:49.956, 1560514009956
241, -1812.57, 483.78, 7453.28, 4886.96, -18142.55, 1860.29, 2494.21, 2581.92, 0.000, 0.000, 0.000, 15:06:49.956, 1560514009956
242, -1784.81, 519.28, 7484.17, 4910.19, -18112.45, 1888.30, 2528.07, 2615.44, 0.000, 0.000, 0.000, 15:06:49.956, 1560514009956
243, -1833.22, 463.55, 7440.65, 4854.31, -18166.22, 1841.45, 2480.78, 2571.12, 0.000, 0.000, 0.000, 15:06:49.956, 1560514009956
244, -1934.23, 359.35, 7338.10, 4754.75, -18278.16, 1745.85, 2375.41, 2471.48, 0.000, 0.050, -1.042, 15:06:49.957, 1560514009957
245, -1942.59, 360.18, 7340.04, 4759.78, -18278.74, 1743.19, 2370.58, 2463.12, 0.000, 0.000, 0.000, 15:06:49.957, 1560514009957
246, -1808.19, 479.44, 7468.63, 4891.19, -18142.04, 1863.15, 2497.11, 2582.41, 0.000, 0.000, 0.000, 15:06:49.957, 1560514009957
247, -1770.73, 510.54, 7508.84, 4924.58, -18112.49, 1893.35, 2534.24, 2621.99, 0.000, 0.000, 0.000, 15:06:49.957, 1560514009957
248, -1816.01, 463.24, 7457.03, 4875.43, -18167.72, 1847.46, 2490.05, 2582.59, 0.000, 0.000, 0.000, 15:06:49.957, 1560514009957
249, -1914.02, 356.38, 7343.22, 4763.78, -18283.19, 1745.81, 2386.16, 2483.01, 0.000, 0.000, 0.000, 15:06:49.957, 1560514009957
250, -1931.35, 355.75, 7335.80, 4758.73, -18287.28, 1735.68, 2374.38, 2464.19, 0.000, 0.000, 0.000, 15:06:49.957, 1560514009957
251, -1811.50, 489.93, 7458.96, 4883.23, -18148.41, 1852.94, 2497.90, 2581.11, 0.000, 0.000, 0.000, 15:06:49.957, 1560514009957
252, -1774.64, 519.92, 7484.35, 4909.45, -18115.55, 1882.80, 2533.03, 2617.52, 0.000, 0.000, 0.000, 15:06:49.957, 1560514009957
253, -1818.69, 477.19, 7451.09, 4862.02, -18161.64, 1840.08, 2490.83, 2575.79, 0.000, 0.000, 0.000, 15:06:49.957, 1560514009957
254, -1938.72, 352.29, 7341.39, 4757.68, -18282.72, 1733.80, 2377.96, 2470.96, -0.002, 0.056, -1.038, 15:06:49.957, 1560514009957
255, -1949.47, 332.86, 7329.81, 4741.72, -18292.31, 1724.30, 2361.06, 2449.06, 0.000, 0.000, 0.000, 15:06:49.957, 1560514009957
0, -1811.18, 471.78, 7450.53, 4866.51, -18152.28, 1845.00, 2486.54, 2568.06, 0.000, 0.000, 0.000, 15:06:49.957, 1560514009957
1, -1769.95, 512.61, 7485.89, 4907.06, -18114.43, 1883.18, 2526.06, 2611.04, 0.000, 0.000, 0.000, 15:06:49.957, 1560514009957
2, -1798.96, 469.81, 7458.53, 4870.09, -18155.23, 1849.54, 2491.48, 2581.25, 0.000, 0.000, 0.000, 15:06:49.957, 1560514009957
3, -1920.26, 358.50, 7347.89, 4758.71, -18280.02, 1743.84, 2376.86, 2467.65, 0.000, 0.000, 0.000, 15:06:49.957, 1560514009957
4, -1939.33, 352.91, 7322.23, 4747.82, -18296.00, 1726.65, 2354.82, 2440.61, 0.000, 0.000, 0.000, 15:06:49.957, 1560514009957
5, -1805.84, 477.81, 7445.79, 4873.78, -18161.51, 1840.55, 2478.20, 2555.79, 0.000, 0.000, 0.000, 15:06:49.957, 1560514009957
6, -1776.32, 513.51, 7491.32, 4916.33, -18120.29, 1876.79, 2522.35, 2603.15, 0.000, 0.000, 0.000, 15:06:49.957, 1560514009957
7, -1828.75, 462.93, 7450.35, 4877.49, -18164.95, 1839.73, 2485.13, 2569.74, 0.000, 0.000, 0.000, 15:06:49.957, 1560514009957
8, -1938.70, 352.29, 7339.13, 4763.45, -18286.79, 1738.03, 2377.24, 2471.39, -0.002, 0.060, -1.036, 15:06:49.957, 1560514009957
9, -1950.77, 348.20, 7314.12, 4739.67, -18299.95, 1720.32, 2357.55, 2447.87, 0.000, 0.000, 0.000, 15:06:49.958, 1560514009958
10, -1813.60, 479.69, 7445.61, 4876.26, -18156.72, 1841.40, 2485.54, 2568.48, 0.000, 0.000, 0.000, 15:06:49.958, 1560514009958
11, -1773.07, 515.05, 7486.56, 4910.30, -18120.69, 1877.35, 2523.80, 2608.47, 0.000, 0.000, 0.000, 15:06:49.958, 1560514009958
12, -1819.34, 472.18, 7444.38, 4865.33, -18171.59, 1837.94, 2478.72, 2569.29, 0.000, 0.000, 0.000, 15:06:49.958, 1560514009958
13, -1930.39, 356.31, 7338.59, 4756.47, -18289.56, 1738.16, 2371.86, 2468.19, 0.000, 0.000, 0.000, 15:06:49.958, 1560514009958
14, -1941.45, 336.04, 7318.45, 4732.27, -18306.06, 1718.20, 2350.76, 2445.15, 0.000, 0.000, 0.000, 15:06:49.958, 1560514009958
15, -1808.73, 473.32, 7444.45, 4865.46, -18161.46, 1840.89, 2481.29, 2570.92, 0.000, 0.000, 0.000, 15:06:49.958, 1560514009958
16, -1778.44, 520.55, 7487.16, 4909.27, -18121.88, 1880.88, 2523.49, 2611.33, 0.000, 0.000, 0.000, 15:06:49.958, 1560514009958
17, -1828.69, 460.49, 7440.87, 4863.67, -18174.92, 1836.91, 2476.82, 2566.72, 0.000, 0.000, 0.000, 15:06:49.958, 1560514009958
18, -1937.47, 344.57, 7335.75, 4760.83, -18289.61, 1737.65, 2369.08, 2462.78, 0.000, 0.054, -1.036, 15:06:49.958, 1560514009958
19, -1949.56, 331.90, 7315.93, 4744.69, -18304.56, 1720.55, 2350.87, 2440.86, 0.000, 0.000, 0.000, 15:06:49.958, 1560514009958
20, -1808.19, 471.35, 7445.75, 4884.24, -18156.79, 1847.46, 2487.37, 2570.72, 0.000, 0.000, 0.000, 15:06:49.958, 1560514009958
21, -1763.22, 517.71, 7493.09, 4918.37, -18115.51, 1884.99, 2533.19, 2617.57, 0.000, 0.000, 0.000, 15:06:49.958, 1560514009958
22, -1819.30, 471.76, 7448.63, 4868.05, -18167.38, 1839.75, 2490.12, 2576.35, 0.000, 0.000, 0.000, 15:06:49.958, 1560514009958
23, -1927.55, 368.92, 7339.62, 4762.51, -18281.96, 1740.44, 2385.96, 2475.48, 0.000, 0.000, 0.000, 15:06:49.958, 1560514009958
24, -1938.77, 351.68, 7315.39, 4738.46, -18300.18, 1719.12, 2361.64, 2448.14, 0.000, 0.000, 0.000, 15:06:49.958, 1560514009958
25, -1809.73, 474.77, 7440.54, 4860.19, -18163.50, 1835.10, 2484.37, 2566.54, 0.000, 0.000, 0.000, 15:06:49.958, 1560514009958
26, -1764.20, 514.16, 7489.85, 4914.66, -18111.35, 1881.19, 2539.36, 2624.14, 0.000, 0.000, 0.000, 15:06:49.959, 1560514009959
27, -1820.48, 467.69, 7439.51, 4866.27, -18163.74, 1836.29, 2494.63, 2582.81, 0.000, 0.000, 0.000, 15:06:49.959, 1560514009959
28, -1933.74, 353.14, 7339.69, 4758.93, -18280.93, 1739.55, 2386.16, 2479.19, 0.004, 0.056, -1.028, 15:06:49.959, 1560514009959
29, -1956.05, 330.49, 7315.97, 4743.46, -18298.66, 1721.87, 2361.10, 2451.11, 0.000, 0.000, 0.000, 15:06:49.959, 1560514009959
30, -1819.79, 463.08, 7440.00, 4872.64, -18157.04, 1841.81, 2485.83, 2573.09, 0.000, 0.000, 0.000, 15:06:49.959, 1560514009959
31, -1766.46, 524.44, 7493.44, 4915.60, -18108.76, 1884.54, 2534.08, 2625.37, 0.000, 0.000, 0.000, 15:06:49.959, 1560514009959
32, -1819.43, 480.20, 7452.43, 4858.55, -18162.00, 1836.58, 2485.36, 2581.83, 0.000, 0.000, 0.000, 15:06:49.959, 1560514009959
33, -1919.25, 369.54, 7338.84, 4753.61, -18281.07, 1734.16, 2375.63, 2477.58, 0.000, 0.000, 0.000, 15:06:49.959, 1560514009959
34, -1937.96, 327.34, 7313.33, 4737.97, -18301.52, 1713.69, 2350.71, 2450.62, 0.000, 0.000, 0.000, 15:06:49.959, 1560514009959
35, -1807.00, 456.94, 7445.88, 4870.53, -18156.03, 1836.15, 2481.58, 2575.48, 0.000, 0.000, 0.000, 15:06:49.959, 1560514009959
36, -1773.36, 507.30, 7488.12, 4902.03, -18113.61, 1875.56, 2529.84, 2622.60, 0.000, 0.000, 0.000, 15:06:49.959, 1560514009959
37, -1823.50, 467.46, 7438.50, 4859.56, -18160.79, 1836.24, 2488.38, 2584.31, 0.000, 0.000, 0.000, 15:06:49.959, 1560514009959
38, -1925.80, 364.33, 7336.13, 4765.48, -18270.83, 1742.54, 2387.28, 2487.23, 0.002, 0.054, -1.036, 15:06:49.959, 1560514009959
39, -1961.43, 332.53, 7311.50, 4738.08, -18296.49, 1718.69, 2359.81, 2453.80, 0.000, 0.000, 0.000, 15:06:49.959, 1560514009959
40, -1835.64, 458.59, 7437.77, 4860.57, -18159.90, 1837.36, 2487.39, 2573.40, 0.000, 0.000, 0.000, 15:06:49.959, 1560514009959
41, -1791.20, 510.83, 7481.44, 4899.57, -18116.18, 1876.90, 2536.57, 2622.22, 0.000, 0.000, 0.000, 15:06:49.959, 1560514009959
42, -1832.66, 459.62, 7439.42, 4853.97, -18165.93, 1835.84, 2497.54, 2585.52, 0.000, 0.000, 0.000, 15:06:49.959, 1560514009959
43, -1933.07, 339.90, 7333.18, 4755.91, -18277.04, 1740.87, 2397.31, 2487.32, 0.000, 0.000, 0.000, 15:06:49.959, 1560514009959
44, -1946.01, 324.35, 7312.51, 4738.37, -18292.96, 1723.48, 2377.85, 2465.87, 0.000, 0.000, 0.000, 15:06:49.959, 1560514009959
45, -1824.10, 457.16, 7433.68, 4853.93, -18159.18, 1835.82, 2499.28, 2580.87, 0.000, 0.000, 0.000, 15:06:49.959, 1560514009959
46, -1780.50, 503.27, 7485.13, 4901.29, -18109.65, 1881.68, 2550.92, 2635.05, 0.000, 0.000, 0.000, 15:06:49.959, 1560514009959
47, -1823.28, 460.02, 7448.45, 4868.81, -18155.47, 1846.41, 2511.35, 2600.76, 0.000, 0.000, 0.000, 15:06:49.960, 1560514009960
48, -1928.33, 356.38, 7337.25, 4768.05, -18274.36, 1749.11, 2403.46, 2500.00, 0.002, 0.052, -1.032, 15:06:49.960, 1560514009960
49, -1952.13, 334.36, 7315.37, 4741.83, -18301.43, 1724.57, 2372.77, 2468.48, 0.000, 0.000, 0.000, 15:06:49.960, 1560514009960
50, -1826.14, 467.55, 7444.27, 4861.03, -18161.53, 1840.40, 2496.22, 2587.77, 0.000, 0.000, 0.000, 15:06:49.960, 1560514009960
51, -1787.51, 503.45, 7483.68, 4899.93, -18114.01, 1880.88, 2539.87, 2631.87, 0.000, 0.000, 0.000, 15:06:49.960, 1560514009960
52, -1823.32, 455.22, 7448.14, 4870.20, -18151.67, 1850.52, 2501.36, 2594.66, 0.000, 0.000, 0.000, 15:06:49.960, 1560514009960
53, -1925.29, 353.31, 7343.69, 4772.07, -18267.57, 1753.61, 2391.39, 2489.96, 0.000, 0.000, 0.000, 15:06:49.960, 1560514009960
54, -1945.85, 322.09, 7319.32, 4736.87, -18295.60, 1724.15, 2355.92, 2453.69, 0.000, 0.000, 0.000, 15:06:49.960, 1560514009960
55, -1809.98, 473.01, 7450.53, 4869.35, -18142.40, 1850.97, 2491.91, 2582.81, 0.000, 0.000, 0.000, 15:06:49.960, 1560514009960
56, -1762.95, 525.13, 7501.69, 4922.50, -18092.53, 1896.95, 2542.38, 2633.30, 0.000, 0.000, 0.000, 15:06:49.960, 1560514009960
57, -1812.15, 472.02, 7465.19, 4881.15, -18143.49, 1856.92, 2499.39, 2594.37, 0.000, 0.000, 0.000, 15:06:49.960, 1560514009960
58, -1924.46, 358.54, 7351.29, 4772.01, -18266.78, 1753.47, 2388.64, 2485.56, -0.002, 0.052, -1.032, 15:06:49.960, 1560514009960
59, -1966.37, 321.60, 7312.69, 4736.36, -18302.72, 1718.36, 2350.08, 2443.65, 0.000, 0.000, 0.000, 15:06:49.960, 1560514009960
60, -1844.13, 444.64, 7425.32, 4850.04, -18169.55, 1829.33, 2472.13, 2560.77, 0.000, 0.000, 0.000, 15:06:49.960, 1560514009960
61, -1798.78, 489.08, 7465.33, 4893.00, -18129.01, 1867.47, 2515.02, 2602.37, 0.000, 0.000, 0.000, 15:06:49.960, 1560514009960
62, -1831.90, 452.91, 7428.69, 4856.30, -18175.92, 1828.73, 2472.39, 2560.08, 0.000, 0.000, 0.000, 15:06:49.960, 1560514009960
63, -1933.07, 350.45, 7324.17, 4747.49, -18287.28, 1729.87, 2364.21, 2455.34, 0.000, 0.000, 0.000, 15:06:49.960, 1560514009960
64, -1969.08, 312.57, 7303.50, 4712.19, -18315.60, 1698.20, 2328.90, 2417.86, 0.000, 0.000, 0.000, 15:06:49.961, 1560514009961
65, -1842.57, 434.92, 7423.13, 4835.06, -18182.85, 1811.99, 2451.29, 2535.45, 0.000, 0.000, 0.000, 15:06:49.961, 1560514009961
66, -1788.97, 488.23, 7475.25, 4897.31, -18125.34, 1870.71, 2512.98, 2599.55, 0.000, 0.000, 0.000, 15:06:49.961, 1560514009961
67, -1824.30, 458.95, 7448.34, 4866.85, -18160.08, 1842.90, 2482.90, 2575.12, 0.000, 0.000, 0.000, 15:06:49.961, 1560514009961
68, -1926.12, 359.51, 7345.74, 4760.52, -18271.23, 1747.33, 2383.17, 2482.41, 0.004, 0.056, -1.036, 15:06:49.961, 1560514009961
69, -1961.41, 319.70, 7305.24, 4731.82, -18304.74, 1715.97, 2349.79, 2447.65, 0.000, 0.000, 0.000, 15:06:49.961, 1560514009961
70, -1821.96, 446.70, 7436.27, 4865.37, -18158.87, 1839.91, 2484.98, 2575.68, 0.000, 0.000, 0.000, 15:06:49.961, 1560514009961
71, -1777.01, 497.10, 7483.77, 4912.71, -18107.53, 1885.10, 2536.68, 2624.23, 0.000, 0.000, 0.000, 15:06:49.961, 1560514009961
72, -1823.61, 460.51, 7447.11, 4866.31, -18156.75, 1841.25, 2494.41, 2583.39, 0.000, 0.000, 0.000, 15:06:49.961, 1560514009961
73, -1926.88, 355.59, 7345.07, 4765.70, -18266.27, 1744.51, 2390.85, 2482.92, 0.000, 0.000, 0.000, 15:06:49.961, 1560514009961
74, -1949.56, 325.20, 7318.83, 4736.42, -18297.00, 1713.51, 2353.17, 2440.94, 0.000, 0.000, 0.000, 15:06:49.961, 1560514009961
75, -1828.31, 454.08, 7436.40, 4853.64, -18162.94, 1826.63, 2471.12, 2554.25, 0.000, 0.000, 0.000, 15:06:49.961, 1560514009961
76, -1790.60, 502.22, 7481.96, 4896.64, -18112.89, 1872.20, 2521.10, 2605.10, 0.000, 0.000, 0.000, 15:06:49.961, 1560514009961
77, -1830.29, 464.74, 7447.67, 4866.51, -18153.62, 1842.05, 2484.80, 2571.14, 0.000, 0.000, 0.000, 15:06:49.961, 1560514009961
78, -1927.97, 359.26, 7352.63, 4768.14, -18263.74, 1750.79, 2381.13, 2473.00, 0.008, 0.056, -1.034, 15:06:49.961, 1560514009961
79, -1958.39, 311.11, 7318.45, 4728.53, -18297.36, 1715.90, 2340.85, 2431.04, 0.000, 0.000, 0.000, 15:06:49.961, 1560514009961
80, -1821.04, 444.69, 7438.12, 4853.59, -18160.26, 1830.00, 2464.73, 2545.57, 0.000, 0.000, 0.000, 15:06:49.961, 1560514009961
81, -1768.02, 509.28, 7496.31, 4912.15, -18100.91, 1884.88, 2525.41, 2608.67, 0.000, 0.000, 0.000, 15:06:49.961, 1560514009961
82, -1820.59, 471.89, 7463.27, 4875.54, -18145.91, 1850.37, 2487.79, 2577.51, 0.000, 0.000, 0.000, 15:06:49.961, 1560514009961
83, -1919.50, 363.57, 7353.70, 4778.83, -18256.14, 1757.94, 2385.18, 2479.70, 0.000, 0.000, 0.000, 15:06:49.961, 1560514009961
84, -1959.11, 317.75, 7304.24, 4737.39, -18299.46, 1718.49, 2341.66, 2435.62, 0.000, 0.000, 0.000, 15:06:49.961, 1560514009961
85, -1835.84, 443.37, 7426.46, 4853.03, -18162.04, 1834.52, 2466.98, 2553.44, 0.000, 0.000, 0.000, 15:06:49.962, 1560514009962
86, -1782.84, 502.00, 7479.99, 4907.39, -18106.41, 1887.81, 2524.96, 2610.39, 0.000, 0.000, 0.000, 15:06:49.962, 1560514009962
87, -1810.65, 475.38, 7443.31, 4880.37, -18145.68, 1857.74, 2490.34, 2578.74, 0.000, 0.000, 0.000, 15:06:49.962, 1560514009962
88, -1917.80, 366.32, 7347.49, 4777.08, -18262.07, 1757.81, 2382.47, 2477.76, -0.002, 0.052, -1.038, 15:06:49.962, 1560514009962
89, -1956.67, 322.45, 7317.47, 4739.15, -18300.13, 1721.64, 2342.82, 2438.78, 0.000, 0.000, 0.000, 15:06:49.962, 1560514009962
90, -1817.31, 458.41, 7451.33, 4862.29, -18157.10, 1840.26, 2470.27, 2557.60, 0.000, 0.000, 0.000, 15:06:49.962, 1560514009962
91, -1755.77, 509.37, 7505.72, 4921.68, -18098.07, 1893.55, 2528.56, 2616.92, 0.000, 0.000, 0.000, 15:06:49.962, 1560514009962
92, -1811.39, 463.96, 7457.10, 4883.81, -18142.49, 1855.66, 2491.08, 2581.47, 0.000, 0.000, 0.000, 15:06:49.962, 1560514009962
93, -1908.62, 371.84, 7366.87, 4795.28, -18243.43, 1766.66, 2397.69, 2493.02, 0.000, 0.000, 0.000, 15:06:49.962, 1560514009962
94, -1931.39, 341.76, 7327.80, 4752.49, -18280.69, 1729.71, 2356.75, 2450.67, 0.000, 0.000, 0.000, 15:06:49.962, 1560514009962
95, -1808.97, 484.21, 7450.04, 4865.10, -18146.29, 1841.49, 2476.26, 2562.16, 0.000, 0.000, 0.000, 15:06:49.962, 1560514009962
96, -1758.81, 537.85, 7515.60, 4925.23, -18085.78, 1897.15, 2537.88, 2624.21, 0.000, 0.000, 0.000, 15:06:49.962, 1560514009962
97, -1800.68, 487.47, 7471.34, 4891.25, -18130.10, 1861.25, 2498.81, 2587.86, -0.002, 0.052, -1.040, 15:06:49.962, 1560514009962
98, -1902.07, 372.80, 7374.91, 4791.30, -18245.17, 1765.88, 2393.67, 2486.81, 0.000, 0.000, 0.000, 15:06:49.962, 1560514009962
99, -1935.59, 329.08, 7326.70, 4758.19, -18286.70, 1728.15, 2349.88, 2440.68, 0.000, 0.000, 0.000, 15:06:49.963, 1560514009963
100, -1807.94, 465.05, 7455.85, 4876.88, -18145.41, 1843.48, 2474.14, 2556.28, 0.000, 0.000, 0.000, 15:06:49.963, 1560514009963
101, -1752.82, 528.48, 7515.06, 4928.43, -18081.76, 1898.22, 2537.95, 2618.06, 0.000, 0.000, 0.000, 15:06:49.963, 1560514009963
102, -1785.93, 487.85, 7476.59, 4889.73, -18122.03, 1865.48, 2505.47, 2590.66, 0.000, 0.000, 0.000, 15:06:49.963, 1560514009963
103, -1894.65, 393.70, 7374.69, 4796.89, -18231.02, 1772.78, 2403.89, 2495.59, 0.000, 0.000, 0.000, 15:06:49.963, 1560514009963
104, -1942.28, 346.76, 7328.94, 4754.46, -18276.73, 1730.67, 2355.43, 2443.54, 0.000, 0.000, 0.000, 15:06:50.436, 1560514010436
105, -1808.03, 466.06, 7451.85, 4871.23, -18147.65, 1841.85, 2474.03, 2554.49, 0.000, 0.000, 0.000, 15:06:50.437, 1560514010437
106, -1754.88, 520.95, 7512.85, 4931.31, -18085.89, 1900.46, 2536.65, 2618.75, 0.000, 0.000, 0.000, 15:06:50.437, 1560514010437
107, -1802.82, 484.07, 7472.61, 4893.69, -18128.20, 1869.48, 2500.85, 2586.88, 0.002, 0.048, -1.036, 15:06:50.438, 1560514010438
108, -1897.66, 376.16, 7375.02, 4796.17, -18235.16, 1782.02, 2402.10, 2492.62, 0.000, 0.000, 0.000, 15:06:50.438, 1560514010438
109, -1933.09, 325.17, 7333.61, 4746.68, -18280.69, 1738.18, 2355.00, 2442.87, 0.000, 0.000, 0.000, 15:06:50.438, 1560514010438
110, -1810.63, 458.26, 7459.07, 4873.64, -18143.94, 1850.59, 2477.71, 2558.74, 0.000, 0.000, 0.000, 15:06:50.438, 1560514010438
111, -1751.75, 528.53, 7505.58, 4928.31, -18083.12, 1901.91, 2538.62, 2617.37, 0.000, 0.000, 0.000, 15:06:50.438, 1560514010438
112, -1778.35, 501.33, 7478.54, 4896.73, -18115.42, 1873.37, 2510.61, 2589.54, 0.000, 0.000, 0.000, 15:06:50.438, 1560514010438
113, -1885.17, 393.37, 7391.12, 4803.84, -18213.97, 1782.91, 2415.06, 2499.55, 0.000, 0.000, 0.000, 15:06:50.438, 1560514010438
114, -1943.69, 332.57, 7338.03, 4750.37, -18260.57, 1730.99, 2361.31, 2443.78, 0.000, 0.000, 0.000, 15:06:50.438, 1560514010438
115, -1816.17, 465.27, 7457.19, 4871.85, -18125.70, 1843.75, 2482.41, 2557.71, 0.000, 0.000, 0.000, 15:06:50.438, 1560514010438
116, -1759.78, 529.09, 7513.31, 4935.73, -18068.10, 1902.42, 2546.29, 2622.19, 0.000, 0.000, 0.000, 15:06:50.439, 1560514010439
117, -1781.70, 487.56, 7474.58, 4890.49, -18124.80, 1862.79, 2504.38, 2585.47, -0.002, 0.052, -1.032, 15:06:50.439, 1560514010439
118, -1878.57, 378.73, 7375.92, 4789.08, -18235.27, 1770.19, 2404.80, 2491.39, 0.000, 0.000, 0.000, 15:06:50.439, 1560514010439
119, -1949.83, 326.02, 7322.27, 4747.24, -18284.06, 1726.43, 2352.72, 2436.85, 0.000, 0.000, 0.000, 15:06:50.439, 1560514010439
120, -1822.18, 460.09, 7433.16, 4859.60, -18151.11, 1838.74, 2470.94, 2545.73, 0.000, 0.000, 0.000, 15:06:50.439, 1560514010439
121, -1748.71, 519.19, 7497.20, 4925.05, -18089.06, 1897.22, 2539.74, 2621.30, 0.000, 0.000, 0.000, 15:06:50.439, 1560514010439
122, -1788.41, 485.26, 7478.40, 4895.97, -18123.98, 1870.86, 2513.07, 2598.35, 0.000, 0.000, 0.000, 15:06:50.439, 1560514010439
123, -1906.74, 372.29, 7374.60, 4792.53, -18233.88, 1774.53, 2411.22, 2499.08, 0.000, 0.000, 0.000, 15:06:50.439, 1560514010439
124, -1940.33, 324.79, 7328.33, 4745.50, -18278.54, 1730.49, 2362.96, 2446.82, 0.000, 0.000, 0.000, 15:06:50.439, 1560514010439
125, -1813.42, 455.28, 7439.98, 4854.64, -18140.56, 1842.50, 2483.99, 2561.02, 0.000, 0.000, 0.000, 15:06:50.439, 1560514010439
126, -1768.16, 533.20, 7502.07, 4927.96, -18068.75, 1904.86, 2556.03, 2630.98, 0.000, 0.000, 0.000, 15:06:50.439, 1560514010439
127, -1823.19, 485.28, 7480.97, 4897.29, -18108.18, 1871.20, 2522.15, 2603.15, 0.000, 0.050, -1.034, 15:06:50.439, 1560514010439
128, -1911.72, 376.81, 7385.60, 4798.76, -18218.77, 1780.54, 2422.28, 2508.51, 0.000, 0.000, 0.000, 15:06:50.439, 1560514010439
129, -1953.81, 314.35, 7325.81, 4746.84, -18281.18, 1728.75, 2361.31, 2448.21, 0.000, 0.000, 0.000, 15:06:50.439, 1560514010439
130, -1829.87, 444.49, 7440.58, 4868.72, -18150.51, 1843.53, 2477.51, 2559.74, 0.000, 0.000, 0.000, 15:06:50.440, 1560514010440
131, -1762.55, 520.66, 7509.22, 4939.76, -18083.61, 1908.91, 2545.48, 2627.54, 0.000, 0.000, 0.000, 15:06:50.440, 1560514010440
132, -1794.96, 490.46, 7471.96, 4909.38, -18119.60, 1881.99, 2514.21, 2598.86, 0.000, 0.000, 0.000, 15:06:50.440, 1560514010440
133, -1882.44, 395.80, 7379.58, 4812.67, -18226.04, 1790.55, 2415.04, 2505.27, 0.000, 0.000, 0.000, 15:06:50.440, 1560514010440
134, -1923.99, 353.90, 7331.84, 4764.79, -18274.34, 1749.05, 2367.07, 2458.22, 0.000, 0.000, 0.000, 15:06:50.440, 1560514010440
135, -1826.74, 471.44, 7454.26, 4884.21, -18141.03, 1859.26, 2484.31, 2566.49, 0.000, 0.000, 0.000, 15:06:50.440, 1560514010440
136, -1769.88, 531.61, 7515.19, 4947.18, -18071.52, 1916.86, 2550.36, 2630.42, 0.000, 0.000, 0.000, 15:06:50.440, 1560514010440
137, -1798.64, 495.65, 7481.71, 4912.53, -18104.40, 1885.91, 2520.09, 2604.40, -0.004, 0.056, -1.030, 15:06:50.440, 1560514010440
138, -1886.51, 396.90, 7385.64, 4819.01, -18204.53, 1798.89, 2425.88, 2514.68, 0.000, 0.000, 0.000, 15:06:50.440, 1560514010440
139, -1935.30, 338.92, 7329.09, 4756.88, -18264.88, 1740.73, 2362.51, 2451.03, 0.000, 0.000, 0.000, 15:06:50.440, 1560514010440
140, -1819.36, 464.11, 7448.16, 4866.94, -18137.68, 1844.76, 2474.38, 2556.46, 0.000, 0.000, 0.000, 15:06:50.441, 1560514010441
141, -1756.82, 534.85, 7523.91, 4940.03, -18066.67, 1910.60, 2549.04, 2630.15, 0.000, 0.000, 0.000, 15:06:50.441, 1560514010441
142, -1792.97, 489.75, 7475.32, 4910.01, -18107.53, 1882.20, 2519.58, 2603.31, 0.000, 0.000, 0.000, 15:06:50.441, 1560514010441
143, -1894.58, 381.72, 7380.19, 4818.14, -18214.88, 1797.44, 2424.85, 2515.11, 0.000, 0.000, 0.000, 15:06:50.441, 1560514010441
144, -1955.02, 329.89, 7333.85, 4756.47, -18278.45, 1742.56, 2363.29, 2453.19, 0.000, 0.000, 0.000, 15:06:50.441, 1560514010441
145, -1832.73, 444.82, 7440.87, 4870.51, -18149.97, 1851.08, 2480.31, 2562.54, 0.000, 0.000, 0.000, 15:06:50.441, 1560514010441
146, -1766.37, 509.84, 7505.58, 4940.67, -18074.36, 1918.47, 2559.30, 2642.33, 0.000, 0.000, 0.000, 15:06:50.441, 1560514010441
147, -1803.27, 466.06, 7474.80, 4910.81, -18108.20, 1891.20, 2534.33, 2621.81, -0.002, 0.054, -1.034, 15:06:50.441, 1560514010441
148, -1929.00, 335.45, 7366.84, 4797.98, -18223.29, 1789.68, 2428.94, 2520.74, 0.000, 0.000, 0.000, 15:06:50.441, 1560514010441
149, -2006.11, 257.85, 7300.77, 4733.07, -18284.64, 1731.77, 2369.37, 2461.22, 0.000, 0.000, 0.000, 15:06:50.441, 1560514010441
150, -1887.14, 370.55, 7414.92, 4850.57, -18149.26, 1843.73, 2488.96, 2576.51, 0.000, 0.000, 0.000, 15:06:50.441, 1560514010441
151, -1826.34, 428.33, 7478.56, 4911.04, -18078.34, 1906.58, 2558.63, 2645.53, 0.000, 0.000, 0.000, 15:06:50.441, 1560514010441
152, -1889.21, 357.11, 7440.25, 4865.17, -18116.00, 1873.05, 2527.27, 2614.80, 0.000, 0.000, 0.000, 15:06:50.441, 1560514010441
153, -2034.32, 226.47, 7335.08, 4761.06, -18224.09, 1780.45, 2430.53, 2522.82, 0.000, 0.000, 0.000, 15:06:50.441, 1560514010441
154, -2129.99, 148.62, 7268.30, 4695.81, -18289.25, 1724.95, 2368.14, 2461.44, 0.000, 0.000, 0.000, 15:06:50.441, 1560514010441
155, -2037.43, 251.81, 7369.50, 4801.67, -18167.94, 1828.44, 2477.60, 2563.75, 0.000, 0.000, 0.000, 15:06:50.442, 1560514010442
156, -2005.22, 298.02, 7417.94, 4860.07, -18103.84, 1886.33, 2546.04, 2631.38, 0.000, 0.000, 0.000, 15:06:50.442, 1560514010442
157, -2072.99, 233.37, 7381.55, 4818.86, -18144.14, 1851.82, 2517.34, 2604.85, 0.000, 0.046, -1.030, 15:06:50.442, 1560514010442
158, -2198.94, 115.74, 7266.35, 4713.38, -18258.45, 1754.63, 2416.45, 2508.60, 0.000, 0.000, 0.000, 15:06:50.442, 1560514010442
159, -2295.57, 44.28, 7194.60, 4644.51, -18323.04, 1692.94, 2353.55, 2444.92, 0.000, 0.000, 0.000, 15:06:50.442, 1560514010442
160, -2196.48, 151.90, 7295.97, 4751.49, -18197.18, 1795.16, 2466.60, 2549.35, 0.000, 0.000, 0.000, 15:06:50.442, 1560514010442
161, -2123.51, 204.59, 7367.78, 4824.80, -18116.94, 1865.14, 2547.74, 2627.02, 0.000, 0.000, 0.000, 15:06:50.442, 1560514010442
162, -2155.96, 145.42, 7327.30, 4779.34, -18161.06, 1824.26, 2510.46, 2591.55, 0.000, 0.000, 0.000, 15:06:50.442, 1560514010442
163, -2254.20, 35.65, 7222.74, 4681.21, -18269.67, 1725.96, 2405.92, 2490.39, 0.000, 0.000, 0.000, 15:06:50.442, 1560514010442
164, -2355.14, -31.27, 7175.65, 4621.42, -18327.40, 1668.45, 2344.34, 2428.05, 0.000, 0.000, 0.000, 15:06:50.442, 1560514010442
165, -2258.17, 86.01, 7293.66, 4728.76, -18204.65, 1769.36, 2455.56, 2533.84, 0.000, 0.000, 0.000, 15:06:50.442, 1560514010442
166, -2163.22, 172.67, 7365.55, 4795.54, -18130.77, 1836.24, 2530.46, 2607.02, 0.000, 0.000, 0.000, 15:06:50.443, 1560514010443
167, -2186.87, 141.89, 7338.97, 4773.39, -18164.86, 1810.31, 2502.34, 2582.72, 0.002, 0.050, -1.034, 15:06:50.443, 1560514010443
168, -2281.91, 44.23, 7241.34, 4684.61, -18275.99, 1721.91, 2401.94, 2487.53, 0.000, 0.000, 0.000, 15:06:50.443, 1560514010443
169, -2331.11, -12.25, 7177.97, 4630.39, -18342.02, 1668.80, 2339.00, 2426.57, 0.000, 0.000, 0.000, 15:06:50.443, 1560514010443
170, -2196.73, 117.95, 7288.21, 4744.63, -18215.49, 1778.84, 2453.53, 2537.79, 0.000, 0.000, 0.000, 15:06:50.443, 1560514010443
171, -2103.84, 213.30, 7364.97, 4819.77, -18139.31, 1850.64, 2528.41, 2612.81, 0.000, 0.000, 0.000, 15:06:50.443, 1560514010443
172, -2137.05, 194.21, 7343.67, 4789.42, -18176.17, 1823.61, 2494.57, 2582.41, 0.000, 0.000, 0.000, 15:06:50.443, 1560514010443
173, -2228.83, 111.49, 7262.04, 4709.38, -18267.68, 1744.46, 2404.67, 2497.87, 0.000, 0.000, 0.000, 15:06:50.443, 1560514010443
174, -2274.13, 50.31, 7204.26, 4649.25, -18328.25, 1685.37, 2342.93, 2435.58, 0.000, 0.000, 0.000, 15:06:50.443, 1560514010443
175, -2132.33, 179.44, 7315.17, 4759.42, -18204.15, 1784.36, 2454.65, 2539.65, 0.000, 0.000, 0.000, 15:06:50.443, 1560514010443
176, -2041.43, 271.46, 7394.56, 4836.72, -18123.89, 1852.09, 2529.86, 2612.58, 0.000, 0.000, 0.000, 15:06:50.443, 1560514010443
177, -2061.75, 256.55, 7371.98, 4818.50, -18155.96, 1828.51, 2502.68, 2587.97, -0.002, 0.048, -1.034, 15:06:50.443, 1560514010443
178, -2136.40, 175.39, 7283.29, 4726.25, -18258.16, 1742.09, 2409.36, 2500.58, 0.000, 0.000, 0.000, 15:06:50.443, 1560514010443
179, -2160.99, 143.92, 7225.89, 4671.36, -18321.32, 1689.88, 2350.02, 2440.83, 0.000, 0.000, 0.000, 15:06:50.443, 1560514010443
180, -2036.42, 276.33, 7344.31, 4781.33, -18193.85, 1796.54, 2460.86, 2542.91, 0.000, 0.000, 0.000, 15:06:50.444, 1560514010444
181, -1976.94, 354.10, 7430.19, 4870.98, -18111.55, 1870.77, 2537.01, 2619.96, 0.000, 0.000, 0.000, 15:06:50.444, 1560514010444
182, -2000.32, 335.50, 7411.84, 4853.70, -18140.52, 1850.93, 2513.43, 2600.60, 0.000, 0.000, 0.000, 15:06:50.444, 1560514010444
183, -2076.45, 254.56, 7319.32, 4761.17, -18244.07, 1765.21, 2415.62, 2504.80, 0.000, 0.000, 0.000, 15:06:50.444, 1560514010444
184, -2116.13, 207.07, 7267.13, 4699.10, -18312.00, 1703.45, 2346.69, 2437.08, 0.000, 0.000, 0.000, 15:06:50.444, 1560514010444
185, -1980.90, 332.93, 7381.53, 4815.55, -18184.22, 1808.43, 2459.97, 2544.81, 0.000, 0.000, 0.000, 15:06:50.444, 1560514010444
186, -1894.33, 412.59, 7446.22, 4887.92, -18110.50, 1871.89, 2532.47, 2615.11, 0.000, 0.000, 0.000, 15:06:50.444, 1560514010444
187, -1903.05, 405.10, 7419.35, 4860.27, -18142.55, 1845.36, 2509.07, 2591.95, 0.002, 0.052, -1.036, 15:06:50.445, 1560514010445
188, -1973.66, 323.09, 7333.45, 4770.15, -18243.40, 1759.06, 2418.97, 2505.09, 0.000, 0.000, 0.000, 15:06:50.445, 1560514010445
189, -2025.87, 265.92, 7275.31, 4700.80, -18308.58, 1696.03, 2353.71, 2442.00, 0.000, 0.000, 0.000, 15:06:50.445, 1560514010445
190, -1900.99, 395.56, 7389.96, 4801.31, -18188.82, 1792.86, 2459.70, 2542.69, 0.000, 0.000, 0.000, 15:06:50.445, 1560514010445
191, -1824.24, 470.01, 7461.24, 4885.17, -18109.00, 1865.72, 2537.97, 2618.55, 0.000, 0.000, 0.000, 15:06:50.445, 1560514010445
192, -1853.97, 434.25, 7443.62, 4864.48, -18133.84, 1847.28, 2516.67, 2599.80, 0.000, 0.000, 0.000, 15:06:50.445, 1560514010445
193, -1939.48, 350.05, 7371.34, 4787.70, -18225.70, 1774.71, 2431.36, 2522.08, 0.000, 0.000, 0.000, 15:06:50.445, 1560514010445
194, -1997.82, 292.05, 7311.48, 4723.62, -18294.95, 1716.52, 2361.93, 2456.81, 0.000, 0.000, 0.000, 15:06:50.445, 1560514010445
195, -1865.30, 415.25, 7421.18, 4833.97, -18172.68, 1819.43, 2470.96, 2559.88, 0.000, 0.000, 0.000, 15:06:50.445, 1560514010445
196, -1768.31, 515.72, 7498.45, 4911.57, -18083.41, 1897.69, 2557.17, 2642.65, 0.000, 0.000, 0.000, 15:06:50.445, 1560514010445
197, -1781.61, 501.08, 7477.24, 4894.16, -18107.79, 1877.21, 2536.65, 2623.89, 0.006, 0.048, -1.038, 15:06:50.446, 1560514010446
198, -1879.11, 393.28, 7382.62, 4801.96, -18214.71, 1787.40, 2438.15, 2529.88, 0.000, 0.000, 0.000, 15:06:50.446, 1560514010446
199, -1949.27, 315.49, 7308.53, 4735.75, -18284.42, 1724.39, 2369.44, 2462.34, 0.000, 0.000, 0.000, 15:06:50.446, 1560514010446
200, -1837.58, 431.25, 7419.44, 4841.63, -18162.60, 1822.52, 2476.84, 2564.26, 0.000, 0.000, 0.000, 15:06:50.446, 1560514010446
201, -1756.56, 521.42, 7499.59, 4919.78, -18078.56, 1895.79, 2557.20, 2644.41, 0.000, 0.000, 0.000, 15:06:50.446, 1560514010446
202, -1782.64, 497.28, 7474.38, 4896.60, -18111.06, 1872.61, 2529.90, 2622.87, 0.000, 0.000, 0.000, 15:06:50.446, 1560514010446
203, -1879.80, 396.16, 7382.76, 4805.09, -18216.04, 1785.70, 2434.08, 2531.98, 0.000, 0.000, 0.000, 15:06:50.446, 1560514010446
204, -1943.69, 333.44, 7312.46, 4735.02, -18290.70, 1720.79, 2362.65, 2457.51, 0.000, 0.000, 0.000, 15:06:50.446, 1560514010446
205, -1825.89, 457.52, 7418.12, 4836.65, -18172.82, 1819.99, 2469.96, 2553.46, 0.000, 0.000, 0.000, 15:06:50.446, 1560514010446
206, -1731.54, 552.33, 7496.64, 4912.15, -18087.23, 1894.78, 2555.63, 2633.12, 0.004, 0.054, -1.040, 15:06:50.446, 1560514010446
207, -1750.48, 530.72, 7468.66, 4896.51, -18115.91, 1872.90, 2530.64, 2607.73, 0.000, 0.000, 0.000, 15:06:50.446, 1560514010446
208, -1853.61, 426.18, 7391.79, 4813.98, -18211.93, 1791.78, 2438.42, 2518.89, 0.000, 0.000, 0.000, 15:06:50.446, 1560514010446
209, -1928.64, 339.28, 7327.84, 4752.07, -18278.90, 1729.67, 2370.78, 2451.56, 0.000, 0.000, 0.000, 15:06:50.447, 1560514010447
210, -1817.11, 452.53, 7427.77, 4854.98, -18158.09, 1827.05, 2476.46, 2547.70, 0.000, 0.000, 0.000, 15:06:50.447, 1560514010447
211, -1738.43, 541.90, 7508.40, 4927.51, -18076.57, 1898.07, 2555.30, 2623.58, 0.000, 0.000, 0.000, 15:06:50.447, 1560514010447
212, -1764.38, 511.16, 7481.64, 4901.56, -18107.62, 1875.49, 2530.51, 2605.99, 0.000, 0.000, 0.000, 15:06:50.447, 1560514010447
213, -1857.74, 416.26, 7390.45, 4809.47, -18209.45, 1791.74, 2436.81, 2521.14, 0.000, 0.000, 0.000, 15:06:50.447, 1560514010447
214, -1918.14, 351.41, 7326.14, 4744.47, -18280.42, 1729.06, 2364.84, 2451.23, 0.000, 0.000, 0.000, 15:06:50.447, 1560514010447
215, -1794.84, 474.84, 7434.15, 4848.18, -18162.33, 1827.21, 2466.29, 2547.94, 0.000, 0.000, 0.000, 15:06:50.447, 1560514010447
216, -1693.61, 573.23, 7510.72, 4926.17, -18077.02, 1905.20, 2551.88, 2634.96, -0.002, 0.050, -1.038, 15:06:50.447, 1560514010447
217, -1738.32, 539.37, 7483.03, 4900.53, -18105.11, 1882.37, 2528.38, 2614.91, 0.000, 0.000, 0.000, 15:06:50.447, 1560514010447
218, -1853.76, 429.24, 7403.32, 4820.65, -18197.87, 1804.30, 2445.50, 2535.20, 0.000, 0.000, 0.000, 15:06:50.447, 1560514010447
219, -1936.64, 343.46, 7338.28, 4751.11, -18274.96, 1734.58, 2372.37, 2460.26, 0.000, 0.000, 0.000, 15:06:50.447, 1560514010447
220, -1822.29, 458.88, 7432.16, 4852.81, -18158.91, 1828.84, 2476.08, 2554.67, 0.000, 0.000, 0.000, 15:06:50.448, 1560514010448
221, -1738.79, 542.05, 7506.90, 4929.83, -18074.71, 1904.01, 2562.81, 2640.10, 0.000, 0.000, 0.000, 15:06:50.448, 1560514010448
222, -1765.90, 513.87, 7477.62, 4903.03, -18102.61, 1880.97, 2545.91, 2622.82, 0.000, 0.000, 0.000, 15:06:50.448, 1560514010448
223, -1853.36, 428.82, 7388.79, 4816.17, -18200.67, 1798.22, 2458.45, 2539.11, 0.000, 0.000, 0.000, 15:06:50.448, 1560514010448
224, -1920.17, 349.60, 7321.56, 4742.79, -18277.85, 1726.81, 2381.33, 2462.07, 0.000, 0.000, 0.000, 15:06:50.917, 1560514010917
225, -1798.87, 460.76, 7433.88, 4856.52, -18157.35, 1828.37, 2486.18, 2559.12, 0.000, 0.000, 0.000, 15:06:50.917, 1560514010917
226, -1709.98, 560.87, 7518.84, 4939.22, -18062.78, 1912.33, 2577.89, 2651.77, 0.000, 0.052, -1.038, 15:06:50.917, 1560514010917
227, -1745.47, 528.73, 7492.73, 4908.42, -18094.09, 1885.32, 2550.20, 2627.63, 0.000, 0.000, 0.000, 15:06:50.917, 1560514010917
228, -1861.27, 425.11, 7397.85, 4822.01, -18196.24, 1797.39, 2450.62, 2535.83, 0.000, 0.000, 0.000, 15:06:50.917, 1560514010917
229, -1938.50, 351.17, 7336.31, 4750.55, -18264.73, 1733.76, 2376.68, 2464.19, 0.000, 0.000, 0.000, 15:06:50.917, 1560514010917
230, -1819.03, 464.67, 7444.38, 4855.76, -18146.91, 1830.23, 2476.04, 2558.02, 0.000, 0.000, 0.000, 15:06:50.917, 1560514010917
231, -1719.16, 555.42, 7522.61, 4939.98, -18061.57, 1906.29, 2556.84, 2638.69, 0.000, 0.000, 0.000, 15:06:50.917, 1560514010917
232, -1727.95, 530.18, 7494.14, 4914.19, -18093.38, 1884.90, 2532.30, 2617.46, 0.000, 0.000, 0.000, 15:06:50.918, 1560514010918
233, -1812.44, 435.14, 7417.83, 4825.47, -18199.15, 1801.13, 2439.20, 2527.87, 0.000, 0.000, 0.000, 15:06:50.918, 1560514010918
234, -1911.19, 349.07, 7337.81, 4745.43, -18279.52, 1728.42, 2356.95, 2444.86, 0.000, 0.000, 0.000, 15:06:50.918, 1560514010918
235, -1826.16, 458.66, 7436.16, 4845.48, -18162.36, 1825.51, 2459.14, 2542.51, 0.000, 0.000, 0.000, 15:06:50.918, 1560514010918
236, -1744.62, 542.50, 7521.72, 4929.97, -18073.06, 1904.77, 2546.87, 2628.52, 0.004, 0.054, -1.032, 15:06:50.918, 1560514010918
237, -1775.42, 510.54, 7489.40, 4902.94, -18104.38, 1882.22, 2525.32, 2609.12, 0.000, 0.000, 0.000, 15:06:50.918, 1560514010918
238, -1867.13, 415.05, 7395.54, 4817.49, -18201.38, 1800.52, 2439.65, 2526.37, 0.000, 0.000, 0.000, 15:06:50.918, 1560514010918
239, -1940.65, 330.36, 7314.45, 4735.71, -18286.68, 1723.72, 2359.85, 2444.83, 0.000, 0.000, 0.000, 15:06:50.918, 1560514010918
240, -1820.39, 447.06, 7414.81, 4836.00, -18171.12, 1818.56, 2466.25, 2542.20, 0.000, 0.000, 0.000, 15:06:50.918, 1560514010918
241, -1710.98, 543.95, 7493.96, 4933.32, -18079.70, 1901.95, 2558.81, 2634.09, 0.000, 0.000, 0.000, 15:06:50.918, 1560514010918
242, -1741.67, 519.23, 7476.23, 4914.03, -18107.66, 1883.94, 2540.14, 2619.47, 0.000, 0.000, 0.000, 15:06:50.918, 1560514010918
243, -1851.33, 425.49, 7403.28, 4815.26, -18203.19, 1801.84, 2455.96, 2539.34, 0.000, 0.000, 0.000, 15:06:50.918, 1560514010918
244, -1934.97, 351.08, 7323.41, 4736.54, -18284.06, 1727.61, 2379.48, 2464.88, 0.000, 0.000, 0.000, 15:06:50.918, 1560514010918
245, -1830.74, 455.42, 7415.33, 4836.90, -18169.26, 1821.82, 2481.00, 2557.40, 0.000, 0.000, 0.000, 15:06:50.918, 1560514010918
246, -1743.53, 537.05, 7504.69, 4921.36, -18078.43, 1904.08, 2568.13, 2643.52, 0.000, 0.050, -1.028, 15:06:50.919, 1560514010919
247, -1756.20, 513.37, 7479.43, 4896.66, -18107.24, 1881.41, 2539.29, 2620.99, 0.000, 0.000, 0.000, 15:06:50.919, 1560514010919
248, -1825.15, 423.54, 7383.99, 4816.82, -18201.27, 1806.94, 2448.81, 2541.37, 0.000, 0.000, 0.000, 15:06:50.919, 1560514010919
249, -1923.59, 329.91, 7314.12, 4745.25, -18282.05, 1736.53, 2362.27, 2460.64, 0.000, 0.000, 0.000, 15:06:50.919, 1560514010919
250, -1826.58, 442.77, 7432.87, 4855.07, -18161.15, 1838.88, 2463.90, 2556.95, 0.000, 0.000, 0.000, 15:06:50.920, 1560514010920
251, -1742.72, 534.09, 7516.47, 4938.77, -18073.93, 1912.33, 2543.92, 2636.14, 0.000, 0.000, 0.000, 15:06:50.920, 1560514010920
252, -1761.99, 519.37, 7495.86, 4920.04, -18098.86, 1890.53, 2521.99, 2617.50, 0.000, 0.000, 0.000, 15:06:50.920, 1560514010920
253, -1847.95, 432.62, 7414.83, 4834.66, -18195.79, 1808.08, 2432.25, 2533.12, 0.000, 0.000, 0.000, 15:06:50.921, 1560514010921
254, -1918.25, 361.32, 7337.74, 4755.65, -18276.60, 1734.70, 2353.21, 2454.06, 0.000, 0.000, 0.000, 15:06:50.921, 1560514010921
255, -1801.71, 478.73, 7424.42, 4845.70, -18165.37, 1822.99, 2451.74, 2543.25, 0.000, 0.000, 0.000, 15:06:50.921, 1560514010921
0, -1703.90, 568.49, 7514.75, 4935.02, -18071.77, 1904.84, 2546.38, 2632.32, 0.002, 0.046, -1.032, 15:06:50.921, 1560514010921
1, -1735.19, 527.66, 7498.76, 4921.32, -18096.91, 1886.26, 2531.76, 2617.14, 0.000, 0.000, 0.000, 15:06:50.921, 1560514010921
2, -1827.75, 426.74, 7419.50, 4848.52, -18183.95, 1812.48, 2449.86, 2540.14, 0.000, 0.000, 0.000, 15:06:50.921, 1560514010921
3, -1919.50, 336.19, 7341.54, 4760.16, -18271.61, 1733.33, 2362.69, 2452.37, 0.000, 0.000, 0.000, 15:06:50.921, 1560514010921
4, -1833.69, 432.15, 7432.74, 4848.56, -18171.34, 1814.87, 2450.58, 2530.11, 0.000, 0.000, 0.000, 15:06:50.921, 1560514010921
5, -1739.99, 537.65, 7518.59, 4943.54, -18070.96, 1905.71, 2551.79, 2628.30, 0.000, 0.000, 0.000, 15:06:50.921, 1560514010921
6, -1759.22, 519.37, 7488.91, 4914.77, -18101.83, 1884.32, 2530.26, 2607.29, 0.000, 0.000, 0.000, 15:06:50.921, 1560514010921
7, -1838.14, 439.01, 7409.18, 4827.86, -18196.76, 1806.02, 2444.97, 2526.55, 0.000, 0.000, 0.000, 15:06:50.921, 1560514010921
8, -1923.28, 359.62, 7324.82, 4753.30, -18277.38, 1733.76, 2369.37, 2448.03, 0.000, 0.000, 0.000, 15:06:50.921, 1560514010921
9, -1828.53, 449.43, 7419.42, 4851.22, -18168.14, 1822.07, 2467.21, 2535.00, 0.000, 0.000, 0.000, 15:06:50.921, 1560514010921
10, -1734.27, 535.57, 7507.39, 4937.12, -18075.65, 1902.11, 2558.81, 2624.79, -0.002, 0.050, -1.028, 15:06:50.922, 1560514010922
11, -1760.51, 503.20, 7481.53, 4903.03, -18108.18, 1872.65, 2529.97, 2597.97, 0.000, 0.000, 0.000, 15:06:50.922, 1560514010922
12, -1851.06, 413.40, 7392.97, 4811.01, -18206.79, 1790.11, 2436.27, 2512.49, 0.000, 0.000, 0.000, 15:06:50.922, 1560514010922
13, -1940.13, 325.87, 7310.76, 4729.38, -18297.58, 1709.22, 2345.10, 2425.34, 0.000, 0.000, 0.000, 15:06:50.922, 1560514010922
14, -1838.70, 427.83, 7404.31, 4818.61, -18192.89, 1794.13, 2431.85, 2507.02, 0.000, 0.000, 0.000, 15:06:50.922, 1560514010922
15, -1734.70, 528.24, 7496.31, 4912.31, -18086.34, 1888.52, 2532.21, 2607.98, 0.000, 0.000, 0.000, 15:06:50.922, 1560514010922
16, -1760.09, 514.85, 7477.02, 4902.21, -18102.68, 1881.23, 2522.04, 2604.49, 0.000, 0.000, 0.000, 15:06:50.922, 1560514010922
17, -1841.56, 435.61, 7397.91, 4828.74, -18191.55, 1812.91, 2441.97, 2534.15, 0.000, 0.000, 0.000, 15:06:50.922, 1560514010922
18, -1932.11, 345.83, 7323.12, 4752.81, -18277.18, 1741.85, 2358.71, 2455.85, 0.000, 0.000, 0.000, 15:06:50.922, 1560514010922
19, -1834.72, 438.38, 7418.57, 4849.01, -18169.89, 1833.60, 2453.13, 2549.60, 0.000, 0.000, 0.000, 15:06:50.922, 1560514010922
20, -1731.50, 533.49, 7508.42, 4937.14, -18071.05, 1919.68, 2547.63, 2641.77, 0.000, 0.042, -1.034, 15:06:50.922, 1560514010922
21, -1754.21, 510.27, 7492.17, 4918.39, -18095.26, 1899.63, 2529.19, 2624.50, 0.000, 0.000, 0.000, 15:06:50.922, 1560514010922
22, -1838.19, 431.63, 7413.29, 4837.88, -18183.95, 1824.10, 2449.46, 2549.53, 0.000, 0.000, 0.000, 15:06:50.922, 1560514010922
23, -1932.62, 343.81, 7333.96, 4756.21, -18275.32, 1743.84, 2363.70, 2465.22, 0.000, 0.000, 0.000, 15:06:50.922, 1560514010922
