%OpenBCI Raw EEG Data
%Number of channels = 8
%Sample Rate = 250.0 Hz
%First Column = SampleIndex
%Last Column = Timestamp 
%Other Columns = EEG data in microvolts followed by Accel Data (in G) interleaved with Aux Data
0, -3491.25, 6764.15, -3674.92, 6502.99, 5160.64, -3371.00, 4679.07, 4925.30, 0.026, 0.036, -0.518, 18:41:18.674, 1560958878674
1, -3489.08, 6763.48, -3672.73, 6503.15, 5160.55, -3372.52, 4679.90, 4925.12, 0.000, 0.000, 0.000, 18:41:19.155, 1560958879155
2, -3490.47, 6763.75, -3675.10, 6502.88, 5161.20, -3372.25, 4679.78, 4924.98, 0.000, 0.000, 0.000, 18:41:19.155, 1560958879155
3, -3488.93, 6763.88, -3676.68, 6501.92, 5161.60, -3372.79, 4680.52, 4925.34, 0.000, 0.000, 0.000, 18:41:19.155, 1560958879155
4, -3487.94, 6764.02, -3676.06, 6501.27, 5160.88, -3370.93, 4679.87, 4924.49, 0.000, 0.000, 0.000, 18:41:19.156, 1560958879156
5, -3487.74, 6763.62, -3675.12, 6501.70, 5160.75, -3371.89, 4680.43, 4925.18, 0.000, 0.000, 0.000, 18:41:19.156, 1560958879156
6, -3488.82, 6764.26, -3674.87, 6501.72, 5160.66, -3371.36, 4679.81, 4925.65, 0.000, 0.000, 0.000, 18:41:19.156, 1560958879156
7, -3488.62, 6764.67, -3675.74, 6502.23, 5162.05, -3372.41, 4680.14, 4926.06, 0.038, 0.054, -0.772, 18:41:19.156, 1560958879156
8, -3489.08, 6764.04, -3675.23, 6502.30, 5161.15, -3371.65, 4680.59, 4925.45, 0.000, 0.000, 0.000, 18:41:19.156, 1560958879156
9, -3492.39, 6763.66, -3678.07, 6502.90, 5160.64, -3370.35, 4680.05, 4924.85, 0.000, 0.000, 0.000, 18:41:19.156, 1560958879156
10, -3488.93, 6763.77, -3677.31, 6503.37, 5161.53, -3369.77, 4680.41, 4925.61, 0.000, 0.000, 0.000, 18:41:19.157, 1560958879157
11, -3489.31, 6763.62, -3676.66, 6502.57, 5161.11, -3371.29, 4680.41, 4925.61, 0.000, 0.000, 0.000, 18:41:19.157, 1560958879157
12, -3490.60, 6764.11, -3676.35, 6502.28, 5161.31, -3372.59, 4679.16, 4925.27, 0.000, 0.000, 0.000, 18:41:19.157, 1560958879157
13, -3490.25, 6764.11, -3676.21, 6502.77, 5161.76, -3370.80, 4679.72, 4924.78, 0.000, 0.000, 0.000, 18:41:19.157, 1560958879157
14, -3489.24, 6763.62, -3676.44, 6502.59, 5161.13, -3370.75, 4679.40, 4925.01, 0.000, 0.000, 0.000, 18:41:19.157, 1560958879157
15, -3489.42, 6764.00, -3675.65, 6502.32, 5161.04, -3369.53, 4680.03, 4925.41, 0.000, 0.000, 0.000, 18:41:19.157, 1560958879157
16, -3489.98, 6764.24, -3677.89, 6503.35, 5161.26, -3369.12, 4680.95, 4925.56, 0.000, 0.000, 0.000, 18:41:19.158, 1560958879158
17, -3490.02, 6764.02, -3675.99, 6502.86, 5161.06, -3371.45, 4678.98, 4925.23, 0.046, 0.062, -0.902, 18:41:19.158, 1560958879158
18, -3490.07, 6763.17, -3675.12, 6502.03, 5162.69, -3372.99, 4678.69, 4925.27, 0.000, 0.000, 0.000, 18:41:19.158, 1560958879158
19, -3492.06, 6763.70, -3675.43, 6502.70, 5162.69, -3371.63, 4678.80, 4924.56, 0.000, 0.000, 0.000, 18:41:19.158, 1560958879158
20, -3489.98, 6764.04, -3674.83, 6503.11, 5161.60, -3371.63, 4681.60, 4926.28, 0.000, 0.000, 0.000, 18:41:19.158, 1560958879158
21, -3486.38, 6764.26, -3677.20, 6502.01, 5161.06, -3371.78, 4681.55, 4925.72, 0.000, 0.000, 0.000, 18:41:19.158, 1560958879158
22, -3490.05, 6764.11, -3677.64, 6501.52, 5160.66, -3370.75, 4680.66, 4925.03, 0.000, 0.000, 0.000, 18:41:19.159, 1560958879159
23, -3491.14, 6762.92, -3676.33, 6501.85, 5161.35, -3368.27, 4679.70, 4924.18, 0.000, 0.000, 0.000, 18:41:19.159, 1560958879159
24, -3491.99, 6763.01, -3676.26, 6501.54, 5161.22, -3370.69, 4681.60, 4925.72, 0.000, 0.000, 0.000, 18:41:19.159, 1560958879159
25, -3491.68, 6763.73, -3675.59, 6501.92, 5160.66, -3368.72, 4682.09, 4927.15, 0.000, 0.000, 0.000, 18:41:19.159, 1560958879159
26, -3490.29, 6762.59, -3676.28, 6502.44, 5161.67, -3370.26, 4680.14, 4926.53, 0.000, 0.000, 0.000, 18:41:19.159, 1560958879159
27, -3488.26, 6763.12, -3677.89, 6502.23, 5161.89, -3372.23, 4678.64, 4925.12, 0.056, 0.068, -0.968, 18:41:19.160, 1560958879160
28, -3490.47, 6763.77, -3675.88, 6501.56, 5161.89, -3370.44, 4679.96, 4924.92, 0.000, 0.000, 0.000, 18:41:19.160, 1560958879160
29, -3489.80, 6763.19, -3676.93, 6501.81, 5162.18, -3373.12, 4680.28, 4925.34, 0.000, 0.000, 0.000, 18:41:19.165, 1560958879165
30, -3488.06, 6763.50, -3676.95, 6502.21, 5162.02, -3372.27, 4680.70, 4925.72, 0.000, 0.000, 0.000, 18:41:19.165, 1560958879165
31, -3489.64, 6763.39, -3675.95, 6501.94, 5161.33, -3369.12, 4680.32, 4927.17, 0.000, 0.000, 0.000, 18:41:19.166, 1560958879166
32, -3489.82, 6762.92, -3676.41, 6502.10, 5161.69, -3370.80, 4681.66, 4926.06, 0.000, 0.000, 0.000, 18:41:19.166, 1560958879166
33, -3489.98, 6763.32, -3676.62, 6502.23, 5162.31, -3370.31, 4681.33, 4926.23, 0.000, 0.000, 0.000, 18:41:19.166, 1560958879166
34, -3489.06, 6763.03, -3677.09, 6501.32, 5161.11, -3371.45, 4678.31, 4925.27, 0.000, 0.000, 0.000, 18:41:19.167, 1560958879167
35, -3489.58, 6762.74, -3676.84, 6500.98, 5160.64, -3372.48, 4679.87, 4926.15, 0.000, 0.000, 0.000, 18:41:19.167, 1560958879167
36, -3488.50, 6763.53, -3677.44, 6501.88, 5161.04, -3371.58, 4680.14, 4925.77, 0.054, 0.066, -1.000, 18:41:19.168, 1560958879168
37, -3488.24, 6763.95, -3676.66, 6502.37, 5161.42, -3369.35, 4677.01, 4925.88, 0.000, 0.000, 0.000, 18:41:19.168, 1560958879168
38, -3490.87, 6763.19, -3677.04, 6501.59, 5160.59, -3369.66, 4678.64, 4925.59, 0.000, 0.000, 0.000, 18:41:19.168, 1560958879168
39, -3489.35, 6762.99, -3676.71, 6501.70, 5161.29, -3371.29, 4679.14, 4926.19, 0.000, 0.000, 0.000, 18:41:19.169, 1560958879169
40, -3490.14, 6763.32, -3677.85, 6502.19, 5162.60, -3371.05, 4680.30, 4926.03, 0.000, 0.000, 0.000, 18:41:19.169, 1560958879169
41, -3487.90, 6763.86, -3676.82, 6502.77, 5161.73, -3372.03, 4679.47, 4925.56, 0.000, 0.000, 0.000, 18:41:19.170, 1560958879170
42, -3489.98, 6763.77, -3675.54, 6502.03, 5161.02, -3371.22, 4680.08, 4926.01, 0.000, 0.000, 0.000, 18:41:19.170, 1560958879170
43, -3491.05, 6762.88, -3676.97, 6501.74, 5161.89, -3371.56, 4680.32, 4926.21, 0.000, 0.000, 0.000, 18:41:19.170, 1560958879170
44, -3491.32, 6762.39, -3676.44, 6501.03, 5161.53, -3368.77, 4679.34, 4926.26, 0.000, 0.000, 0.000, 18:41:19.171, 1560958879171
45, -3489.78, 6763.37, -3675.90, 6500.98, 5161.26, -3370.98, 4680.10, 4926.28, 0.000, 0.000, 0.000, 18:41:19.171, 1560958879171
46, -3489.02, 6762.99, -3677.24, 6501.25, 5160.86, -3371.67, 4681.62, 4925.74, 0.054, 0.072, -1.018, 18:41:19.171, 1560958879171
47, -3490.36, 6762.90, -3675.83, 6501.85, 5160.95, -3370.22, 4679.05, 4925.70, 0.000, 0.000, 0.000, 18:41:19.171, 1560958879171
48, -3489.98, 6762.97, -3676.17, 6502.10, 5161.49, -3370.96, 4679.18, 4926.44, 0.000, 0.000, 0.000, 18:41:19.171, 1560958879171
49, -3489.22, 6763.39, -3676.91, 6502.03, 5162.02, -3372.21, 4678.98, 4925.18, 0.000, 0.000, 0.000, 18:41:19.171, 1560958879171
50, -3489.46, 6763.75, -3677.29, 6501.65, 5161.67, -3372.63, 4679.87, 4925.56, 0.000, 0.000, 0.000, 18:41:19.172, 1560958879172
51, -3489.58, 6762.32, -3677.58, 6501.92, 5161.00, -3369.21, 4680.72, 4926.91, 0.000, 0.000, 0.000, 18:41:19.172, 1560958879172
52, -3486.78, 6762.72, -3676.17, 6501.97, 5161.31, -3368.56, 4681.37, 4925.72, 0.000, 0.000, 0.000, 18:41:19.172, 1560958879172
53, -3490.90, 6762.97, -3675.65, 6502.55, 5161.55, -3370.31, 4681.68, 4925.25, 0.000, 0.000, 0.000, 18:41:19.172, 1560958879172
54, -3491.66, 6763.06, -3676.35, 6500.87, 5161.71, -3371.34, 4680.32, 4924.78, 0.000, 0.000, 0.000, 18:41:19.172, 1560958879172
55, -3490.07, 6763.35, -3676.21, 6500.47, 5161.38, -3370.84, 4681.08, 4926.39, 0.000, 0.000, 0.000, 18:41:19.172, 1560958879172
56, -3490.98, 6762.14, -3677.00, 6501.25, 5160.46, -3369.55, 4681.77, 4926.79, 0.068, 0.074, -1.018, 18:41:19.173, 1560958879173
57, -3491.30, 6762.79, -3676.57, 6501.30, 5161.29, -3370.51, 4680.54, 4926.77, 0.000, 0.000, 0.000, 18:41:19.173, 1560958879173
58, -3489.64, 6762.25, -3677.17, 6501.32, 5159.92, -3368.65, 4680.12, 4926.17, 0.000, 0.000, 0.000, 18:41:19.173, 1560958879173
59, -3490.90, 6762.54, -3677.42, 6501.94, 5160.28, -3369.35, 4681.30, 4926.28, 0.000, 0.000, 0.000, 18:41:19.173, 1560958879173
60, -3491.95, 6762.45, -3677.53, 6501.59, 5161.00, -3370.08, 4681.60, 4925.41, 0.000, 0.000, 0.000, 18:41:19.173, 1560958879173
61, -3489.96, 6763.44, -3677.29, 6501.63, 5160.73, -3370.49, 4680.59, 4925.65, 0.000, 0.000, 0.000, 18:41:19.173, 1560958879173
62, -3488.44, 6763.68, -3677.69, 6502.52, 5161.67, -3369.61, 4679.81, 4925.68, 0.000, 0.000, 0.000, 18:41:19.173, 1560958879173
63, -3491.88, 6763.55, -3675.68, 6502.19, 5160.97, -3368.27, 4680.70, 4927.80, 0.000, 0.000, 0.000, 18:41:19.174, 1560958879174
64, -3490.67, 6763.55, -3677.13, 6501.99, 5161.00, -3367.38, 4679.43, 4927.31, 0.000, 0.000, 0.000, 18:41:19.174, 1560958879174
65, -3489.44, 6763.12, -3676.79, 6503.02, 5161.46, -3369.46, 4680.37, 4926.23, 0.000, 0.000, 0.000, 18:41:19.174, 1560958879174
66, -3488.08, 6763.24, -3676.12, 6503.51, 5161.26, -3370.24, 4680.86, 4925.63, 0.060, 0.068, -1.028, 18:41:19.174, 1560958879174
67, -3487.79, 6763.82, -3675.65, 6503.04, 5161.38, -3369.57, 4680.70, 4925.03, 0.000, 0.000, 0.000, 18:41:19.174, 1560958879174
68, -3489.46, 6763.26, -3678.45, 6501.36, 5162.27, -3370.62, 4679.96, 4926.39, 0.000, 0.000, 0.000, 18:41:19.175, 1560958879175
69, -3488.19, 6762.12, -3677.55, 6500.65, 5161.33, -3372.10, 4679.85, 4926.73, 0.000, 0.000, 0.000, 18:41:19.175, 1560958879175
70, -3489.91, 6763.21, -3676.88, 6500.80, 5161.11, -3372.21, 4680.50, 4926.17, 0.000, 0.000, 0.000, 18:41:19.175, 1560958879175
71, -3490.34, 6763.30, -3675.83, 6501.54, 5162.31, -3371.56, 4680.79, 4925.09, 0.000, 0.000, 0.000, 18:41:19.175, 1560958879175
72, -3489.13, 6762.48, -3674.72, 6501.09, 5162.94, -3371.47, 4680.01, 4923.71, 0.000, 0.000, 0.000, 18:41:19.175, 1560958879175
73, -3490.07, 6762.65, -3676.84, 6500.36, 5162.83, -3371.25, 4679.85, 4924.78, 0.000, 0.000, 0.000, 18:41:19.176, 1560958879176
74, -3489.71, 6762.61, -3676.44, 6500.80, 5163.05, -3369.79, 4680.63, 4924.89, 0.000, 0.000, 0.000, 18:41:19.176, 1560958879176
75, -3491.10, 6762.48, -3677.09, 6501.12, 5162.40, -3370.62, 4679.63, 4925.48, 0.000, 0.000, 0.000, 18:41:19.176, 1560958879176
76, -3491.21, 6761.94, -3677.40, 6500.92, 5161.49, -3369.77, 4678.85, 4925.39, 0.066, 0.066, -1.026, 18:41:19.176, 1560958879176
77, -3491.14, 6761.92, -3676.44, 6500.87, 5161.22, -3371.18, 4680.21, 4926.21, 0.000, 0.000, 0.000, 18:41:19.176, 1560958879176
78, -3488.70, 6762.81, -3677.15, 6502.32, 5161.44, -3371.69, 4681.08, 4926.19, 0.000, 0.000, 0.000, 18:41:19.176, 1560958879176
79, -3489.89, 6761.92, -3676.24, 6500.96, 5161.15, -3371.54, 4681.04, 4924.51, 0.000, 0.000, 0.000, 18:41:19.176, 1560958879176
80, -3490.69, 6762.92, -3675.90, 6500.51, 5161.51, -3371.56, 4680.81, 4924.22, 0.000, 0.000, 0.000, 18:41:19.177, 1560958879177
81, -3490.49, 6763.37, -3676.91, 6501.25, 5161.69, -3371.00, 4679.63, 4924.60, 0.000, 0.000, 0.000, 18:41:19.177, 1560958879177
82, -3489.84, 6762.65, -3677.20, 6501.38, 5161.76, -3370.46, 4679.52, 4924.63, 0.000, 0.000, 0.000, 18:41:19.177, 1560958879177
83, -3489.24, 6762.43, -3676.62, 6501.09, 5161.64, -3371.27, 4680.50, 4924.89, 0.000, 0.000, 0.000, 18:41:19.177, 1560958879177
84, -3488.35, 6762.52, -3676.50, 6500.51, 5161.20, -3372.32, 4680.81, 4924.96, 0.000, 0.000, 0.000, 18:41:19.177, 1560958879177
85, -3488.88, 6762.32, -3676.19, 6500.89, 5161.15, -3371.63, 4681.19, 4925.07, 0.000, 0.000, 0.000, 18:41:19.177, 1560958879177
86, -3488.75, 6762.03, -3677.96, 6500.80, 5161.29, -3371.36, 4681.04, 4925.52, 0.064, 0.070, -1.028, 18:41:19.178, 1560958879178
87, -3489.49, 6762.36, -3678.34, 6500.31, 5160.84, -3369.46, 4680.72, 4925.54, 0.000, 0.000, 0.000, 18:41:19.178, 1560958879178
88, -3489.96, 6763.21, -3676.08, 6500.69, 5161.31, -3369.17, 4679.67, 4925.68, 0.000, 0.000, 0.000, 18:41:19.178, 1560958879178
89, -3490.07, 6763.32, -3674.22, 6499.80, 5161.08, -3370.51, 4679.29, 4925.56, 0.000, 0.000, 0.000, 18:41:19.179, 1560958879179
90, -3488.48, 6763.17, -3675.54, 6500.78, 5162.27, -3372.57, 4679.74, 4925.18, 0.000, 0.000, 0.000, 18:41:19.180, 1560958879180
91, -3488.64, 6762.72, -3673.80, 6501.65, 5161.24, -3370.44, 4679.40, 4924.76, 0.000, 0.000, 0.000, 18:41:19.180, 1560958879180
92, -3488.46, 6762.48, -3675.68, 6501.92, 5161.04, -3370.33, 4679.65, 4925.39, 0.000, 0.000, 0.000, 18:41:19.180, 1560958879180
93, -3488.06, 6761.65, -3674.81, 6501.94, 5160.79, -3371.22, 4680.70, 4925.79, 0.000, 0.000, 0.000, 18:41:19.181, 1560958879181
94, -3489.24, 6761.92, -3675.05, 6501.09, 5162.00, -3371.36, 4680.97, 4925.01, 0.000, 0.000, 0.000, 18:41:19.181, 1560958879181
95, -3488.86, 6762.81, -3675.10, 6501.65, 5162.90, -3370.58, 4682.60, 4925.70, 0.000, 0.000, 0.000, 18:41:19.181, 1560958879181
96, -3489.62, 6761.87, -3675.52, 6501.23, 5162.22, -3371.49, 4682.06, 4925.54, 0.058, 0.072, -1.026, 18:41:19.181, 1560958879181
97, -3487.25, 6761.38, -3675.81, 6500.18, 5161.71, -3371.58, 4681.21, 4925.16, 0.000, 0.000, 0.000, 18:41:19.181, 1560958879181
98, -3488.48, 6762.70, -3676.82, 6500.94, 5161.87, -3370.33, 4679.85, 4925.07, 0.000, 0.000, 0.000, 18:41:19.181, 1560958879181
99, -3488.35, 6762.03, -3677.38, 6501.18, 5160.73, -3371.72, 4678.85, 4925.14, 0.000, 0.000, 0.000, 18:41:19.181, 1560958879181
100, -3488.68, 6761.58, -3674.94, 6500.47, 5161.20, -3370.73, 4679.63, 4926.08, 0.000, 0.000, 0.000, 18:41:19.182, 1560958879182
101, -3489.96, 6761.45, -3675.65, 6499.91, 5161.26, -3371.25, 4679.67, 4926.95, 0.000, 0.000, 0.000, 18:41:19.182, 1560958879182
102, -3489.15, 6761.87, -3676.35, 6500.09, 5161.87, -3372.57, 4679.63, 4927.46, 0.000, 0.000, 0.000, 18:41:19.182, 1560958879182
103, -3490.16, 6762.25, -3676.55, 6500.89, 5161.78, -3372.10, 4680.70, 4926.64, 0.000, 0.000, 0.000, 18:41:19.182, 1560958879182
104, -3490.22, 6761.83, -3675.54, 6500.42, 5159.63, -3371.25, 4682.20, 4925.97, 0.000, 0.000, 0.000, 18:41:19.182, 1560958879182
105, -3489.64, 6761.47, -3675.54, 6500.18, 5159.77, -3370.49, 4682.47, 4925.01, 0.000, 0.000, 0.000, 18:41:19.182, 1560958879182
106, -3491.63, 6762.30, -3676.44, 6500.87, 5161.13, -3369.28, 4681.60, 4925.99, 0.054, 0.074, -1.026, 18:41:19.183, 1560958879183
107, -3490.87, 6762.59, -3675.83, 6501.07, 5161.89, -3373.12, 4681.55, 4925.85, 0.000, 0.000, 0.000, 18:41:19.183, 1560958879183
108, -3489.69, 6762.14, -3677.26, 6500.83, 5161.55, -3371.00, 4680.34, 4926.26, 0.000, 0.000, 0.000, 18:41:19.183, 1560958879183
109, -3489.71, 6762.59, -3678.00, 6500.51, 5161.84, -3371.13, 4680.08, 4925.50, 0.000, 0.000, 0.000, 18:41:19.183, 1560958879183
110, -3490.14, 6761.85, -3677.02, 6499.86, 5161.69, -3372.81, 4679.78, 4924.18, 0.000, 0.000, 0.000, 18:41:19.183, 1560958879183
111, -3490.76, 6762.10, -3675.95, 6500.07, 5160.66, -3371.45, 4680.54, 4925.32, 0.000, 0.000, 0.000, 18:41:19.183, 1560958879183
112, -3489.13, 6763.06, -3676.01, 6500.20, 5160.55, -3368.72, 4680.54, 4925.72, 0.000, 0.000, 0.000, 18:41:19.184, 1560958879184
113, -3490.58, 6761.92, -3678.58, 6499.73, 5161.22, -3368.34, 4679.99, 4925.56, 0.000, 0.000, 0.000, 18:41:19.184, 1560958879184
114, -3489.67, 6760.93, -3678.49, 6499.69, 5160.66, -3370.06, 4680.34, 4925.16, 0.000, 0.000, 0.000, 18:41:19.184, 1560958879184
115, -3488.93, 6761.69, -3675.12, 6500.24, 5160.41, -3372.34, 4681.57, 4924.76, 0.000, 0.000, 0.000, 18:41:19.184, 1560958879184
116, -3488.50, 6762.36, -3675.99, 6500.54, 5160.37, -3371.92, 4681.33, 4925.07, 0.060, 0.072, -1.032, 18:41:19.186, 1560958879186
117, -3490.16, 6762.36, -3676.37, 6500.27, 5161.17, -3370.22, 4680.37, 4925.54, 0.000, 0.000, 0.000, 18:41:19.187, 1560958879187
118, -3491.03, 6762.77, -3675.97, 6499.80, 5162.14, -3371.11, 4679.87, 4925.16, 0.000, 0.000, 0.000, 18:41:19.187, 1560958879187
119, -3489.53, 6762.61, -3677.20, 6500.16, 5162.05, -3370.15, 4680.57, 4923.87, 0.000, 0.000, 0.000, 18:41:19.188, 1560958879188
120, -3490.78, 6762.07, -3675.97, 6499.28, 5161.87, -3369.70, 4680.03, 4924.27, 0.000, 0.000, 0.000, 18:41:19.188, 1560958879188
121, -3486.22, 6762.25, -3675.90, 6499.17, 5161.00, -3368.70, 4680.48, 4924.83, 0.000, 0.000, 0.000, 18:41:19.640, 1560958879640
122, -3487.88, 6762.39, -3677.02, 6500.24, 5161.49, -3370.80, 4681.37, 4925.94, 0.000, 0.000, 0.000, 18:41:19.640, 1560958879640
123, -3489.96, 6761.69, -3675.86, 6500.18, 5161.49, -3370.84, 4680.88, 4926.97, 0.000, 0.000, 0.000, 18:41:19.641, 1560958879641
124, -3490.76, 6761.83, -3676.79, 6499.75, 5160.75, -3372.19, 4681.84, 4926.37, 0.000, 0.000, 0.000, 18:41:19.641, 1560958879641
125, -3489.89, 6761.22, -3676.88, 6500.58, 5160.41, -3370.58, 4681.24, 4925.56, 0.000, 0.000, 0.000, 18:41:19.642, 1560958879642
126, -3489.42, 6761.27, -3674.81, 6500.74, 5161.49, -3370.55, 4680.30, 4925.01, 0.056, 0.070, -1.026, 18:41:19.642, 1560958879642
127, -3489.91, 6762.16, -3676.17, 6500.47, 5161.44, -3369.57, 4680.59, 4925.34, 0.000, 0.000, 0.000, 18:41:19.642, 1560958879642
128, -3491.59, 6761.54, -3675.05, 6499.80, 5161.29, -3371.85, 4682.15, 4926.46, 0.000, 0.000, 0.000, 18:41:19.642, 1560958879642
129, -3492.66, 6762.18, -3675.12, 6501.00, 5161.20, -3371.36, 4681.64, 4926.73, 0.000, 0.000, 0.000, 18:41:19.643, 1560958879643
130, -3491.25, 6762.12, -3674.72, 6500.18, 5160.82, -3371.09, 4681.04, 4925.59, 0.000, 0.000, 0.000, 18:41:19.643, 1560958879643
131, -3491.25, 6761.20, -3676.95, 6500.20, 5161.22, -3370.71, 4682.40, 4925.16, 0.000, 0.000, 0.000, 18:41:19.643, 1560958879643
132, -3491.61, 6761.69, -3677.17, 6500.58, 5161.08, -3368.18, 4682.49, 4925.61, 0.000, 0.000, 0.000, 18:41:19.643, 1560958879643
133, -3488.93, 6761.69, -3677.17, 6499.84, 5162.00, -3369.50, 4680.90, 4925.12, 0.000, 0.000, 0.000, 18:41:19.643, 1560958879643
134, -3488.15, 6761.36, -3675.54, 6499.57, 5161.04, -3370.84, 4681.04, 4925.07, 0.000, 0.000, 0.000, 18:41:19.643, 1560958879643
135, -3491.32, 6760.98, -3675.99, 6500.85, 5159.88, -3371.67, 4682.13, 4924.27, 0.000, 0.000, 0.000, 18:41:19.643, 1560958879643
136, -3491.57, 6761.49, -3677.24, 6500.40, 5160.57, -3367.38, 4681.64, 4924.49, 0.060, 0.070, -1.030, 18:41:19.644, 1560958879644
137, -3490.92, 6762.03, -3677.47, 6500.54, 5162.78, -3369.12, 4680.79, 4925.79, 0.000, 0.000, 0.000, 18:41:19.644, 1560958879644
138, -3490.72, 6761.74, -3676.62, 6499.46, 5163.45, -3370.67, 4679.81, 4926.17, 0.000, 0.000, 0.000, 18:41:19.644, 1560958879644
139, -3488.41, 6761.69, -3678.25, 6499.84, 5162.67, -3371.05, 4680.19, 4927.06, 0.000, 0.000, 0.000, 18:41:19.644, 1560958879644
140, -3490.05, 6761.20, -3678.83, 6500.42, 5161.49, -3372.90, 4680.57, 4925.25, 0.000, 0.000, 0.000, 18:41:19.645, 1560958879645
141, -3488.35, 6760.75, -3676.55, 6501.00, 5161.42, -3372.39, 4680.16, 4925.18, 0.000, 0.000, 0.000, 18:41:19.645, 1560958879645
142, -3490.58, 6760.75, -3678.18, 6501.50, 5161.98, -3371.78, 4681.26, 4926.28, 0.000, 0.000, 0.000, 18:41:19.645, 1560958879645
143, -3491.19, 6761.16, -3678.74, 6500.51, 5162.72, -3371.51, 4679.76, 4926.82, 0.000, 0.000, 0.000, 18:41:19.646, 1560958879646
144, -3490.87, 6761.49, -3676.28, 6499.57, 5162.34, -3371.49, 4680.21, 4925.63, 0.000, 0.000, 0.000, 18:41:19.646, 1560958879646
145, -3491.28, 6761.56, -3675.86, 6500.36, 5161.93, -3369.91, 4682.15, 4925.50, 0.060, 0.070, -1.028, 18:41:19.646, 1560958879646
146, -3490.81, 6761.47, -3677.73, 6500.38, 5161.33, -3371.27, 4682.20, 4926.01, 0.000, 0.000, 0.000, 18:41:19.649, 1560958879649
147, -3490.43, 6761.29, -3677.00, 6499.89, 5160.70, -3372.21, 4681.89, 4926.82, 0.000, 0.000, 0.000, 18:41:19.649, 1560958879649
148, -3490.65, 6760.75, -3676.35, 6499.73, 5160.79, -3369.66, 4680.81, 4925.83, 0.000, 0.000, 0.000, 18:41:19.649, 1560958879649
149, -3489.46, 6761.38, -3674.36, 6500.18, 5162.52, -3368.01, 4679.36, 4925.83, 0.000, 0.000, 0.000, 18:41:19.650, 1560958879650
150, -3488.95, 6761.67, -3674.94, 6501.63, 5162.20, -3368.39, 4680.16, 4926.37, 0.000, 0.000, 0.000, 18:41:19.650, 1560958879650
151, -3489.20, 6761.80, -3677.13, 6501.18, 5161.89, -3370.84, 4680.75, 4927.15, 0.000, 0.000, 0.000, 18:41:19.650, 1560958879650
152, -3489.29, 6762.25, -3677.40, 6500.78, 5160.68, -3370.58, 4680.61, 4926.73, 0.000, 0.000, 0.000, 18:41:19.651, 1560958879651
153, -3489.58, 6761.72, -3675.77, 6500.65, 5161.00, -3369.50, 4681.66, 4925.07, 0.000, 0.000, 0.000, 18:41:19.651, 1560958879651
154, -3488.32, 6761.02, -3676.41, 6499.57, 5161.58, -3371.76, 4680.77, 4925.59, 0.000, 0.000, 0.000, 18:41:19.651, 1560958879651
155, -3490.36, 6760.87, -3675.95, 6499.57, 5161.91, -3371.11, 4681.01, 4925.88, 0.058, 0.072, -1.032, 18:41:19.651, 1560958879651
156, -3490.67, 6760.78, -3676.33, 6498.95, 5161.89, -3373.71, 4681.53, 4924.74, 0.000, 0.000, 0.000, 18:41:19.651, 1560958879651
157, -3488.24, 6760.82, -3676.39, 6499.98, 5162.45, -3372.16, 4681.73, 4926.57, 0.000, 0.000, 0.000, 18:41:19.652, 1560958879652
158, -3488.70, 6760.89, -3677.11, 6500.07, 5162.00, -3371.81, 4682.91, 4926.53, 0.000, 0.000, 0.000, 18:41:19.652, 1560958879652
159, -3490.07, 6760.98, -3676.33, 6499.22, 5161.46, -3373.53, 4683.03, 4926.26, 0.000, 0.000, 0.000, 18:41:19.652, 1560958879652
160, -3489.71, 6760.75, -3675.27, 6499.91, 5160.08, -3372.74, 4681.89, 4924.83, 0.000, 0.000, 0.000, 18:41:19.652, 1560958879652
161, -3488.21, 6760.87, -3677.17, 6500.42, 5161.08, -3373.15, 4681.60, 4925.05, 0.000, 0.000, 0.000, 18:41:19.652, 1560958879652
162, -3489.76, 6760.71, -3676.12, 6500.07, 5162.22, -3371.07, 4680.81, 4924.94, 0.000, 0.000, 0.000, 18:41:19.653, 1560958879653
163, -3489.55, 6761.69, -3676.35, 6500.98, 5163.21, -3371.74, 4681.42, 4926.70, 0.000, 0.000, 0.000, 18:41:19.653, 1560958879653
164, -3491.66, 6760.87, -3677.06, 6500.07, 5162.76, -3373.86, 4679.74, 4926.10, 0.000, 0.000, 0.000, 18:41:19.653, 1560958879653
165, -3491.32, 6760.93, -3675.72, 6499.75, 5160.64, -3372.05, 4680.34, 4926.17, 0.056, 0.068, -1.026, 18:41:19.653, 1560958879653
166, -3492.55, 6761.31, -3677.38, 6499.71, 5161.60, -3371.76, 4681.80, 4925.30, 0.000, 0.000, 0.000, 18:41:19.654, 1560958879654
167, -3493.58, 6761.87, -3677.11, 6500.00, 5163.83, -3371.89, 4682.71, 4926.41, 0.000, 0.000, 0.000, 18:41:19.654, 1560958879654
168, -3492.42, 6761.42, -3676.10, 6499.33, 5163.21, -3372.70, 4680.81, 4926.21, 0.000, 0.000, 0.000, 18:41:19.654, 1560958879654
169, -3491.61, 6761.02, -3675.68, 6498.30, 5160.77, -3371.85, 4680.70, 4926.30, 0.000, 0.000, 0.000, 18:41:19.654, 1560958879654
170, -3491.32, 6761.16, -3675.16, 6498.28, 5160.70, -3371.34, 4680.79, 4926.97, 0.000, 0.000, 0.000, 18:41:19.654, 1560958879654
171, -3489.20, 6761.18, -3676.62, 6499.13, 5162.40, -3372.32, 4681.51, 4925.74, 0.000, 0.000, 0.000, 18:41:19.654, 1560958879654
172, -3491.88, 6761.18, -3677.91, 6500.54, 5161.67, -3372.30, 4682.09, 4925.72, 0.000, 0.000, 0.000, 18:41:19.655, 1560958879655
173, -3491.16, 6760.60, -3678.23, 6500.58, 5161.22, -3373.21, 4682.73, 4925.09, 0.000, 0.000, 0.000, 18:41:19.655, 1560958879655
174, -3488.57, 6760.58, -3675.88, 6499.93, 5162.45, -3372.34, 4683.38, 4924.56, 0.000, 0.000, 0.000, 18:41:19.655, 1560958879655
175, -3489.69, 6760.98, -3676.21, 6500.51, 5161.69, -3370.26, 4681.89, 4925.16, 0.060, 0.070, -1.022, 18:41:19.655, 1560958879655
176, -3489.87, 6760.80, -3675.45, 6501.00, 5163.01, -3370.24, 4681.37, 4924.92, 0.000, 0.000, 0.000, 18:41:19.655, 1560958879655
177, -3490.36, 6760.49, -3678.23, 6500.80, 5163.61, -3370.44, 4681.55, 4922.95, 0.000, 0.000, 0.000, 18:41:19.655, 1560958879655
178, -3492.06, 6760.58, -3677.15, 6500.24, 5161.22, -3371.67, 4682.33, 4924.22, 0.000, 0.000, 0.000, 18:41:19.656, 1560958879656
179, -3492.26, 6761.02, -3676.28, 6501.32, 5160.93, -3370.49, 4681.08, 4925.45, 0.000, 0.000, 0.000, 18:41:19.656, 1560958879656
180, -3491.70, 6761.31, -3676.21, 6501.36, 5161.53, -3366.87, 4680.25, 4925.39, 0.000, 0.000, 0.000, 18:41:19.657, 1560958879657
181, -3489.11, 6761.20, -3676.62, 6500.42, 5162.36, -3368.85, 4681.37, 4926.08, 0.000, 0.000, 0.000, 18:41:19.657, 1560958879657
182, -3488.57, 6760.69, -3680.13, 6499.46, 5162.11, -3370.62, 4681.84, 4925.41, 0.000, 0.000, 0.000, 18:41:19.657, 1560958879657
183, -3491.52, 6760.80, -3679.81, 6499.10, 5162.49, -3370.44, 4681.53, 4926.12, 0.000, 0.000, 0.000, 18:41:19.657, 1560958879657
184, -3492.26, 6760.84, -3676.24, 6498.72, 5162.38, -3372.45, 4679.87, 4926.32, 0.000, 0.000, 0.000, 18:41:19.658, 1560958879658
185, -3488.48, 6761.25, -3676.30, 6500.09, 5162.09, -3371.78, 4679.38, 4926.32, 0.054, 0.066, -1.030, 18:41:19.658, 1560958879658
186, -3489.64, 6760.91, -3677.33, 6499.69, 5161.84, -3370.67, 4679.31, 4925.43, 0.000, 0.000, 0.000, 18:41:19.658, 1560958879658
187, -3491.39, 6760.71, -3677.58, 6499.53, 5162.31, -3368.72, 4680.63, 4926.12, 0.000, 0.000, 0.000, 18:41:19.659, 1560958879659
188, -3492.08, 6761.16, -3677.93, 6498.43, 5162.14, -3370.96, 4681.46, 4926.39, 0.000, 0.000, 0.000, 18:41:19.659, 1560958879659
189, -3490.31, 6760.71, -3677.31, 6498.64, 5162.47, -3371.69, 4681.37, 4926.28, 0.000, 0.000, 0.000, 18:41:19.659, 1560958879659
190, -3491.77, 6760.93, -3676.68, 6500.40, 5162.34, -3371.94, 4681.80, 4926.82, 0.000, 0.000, 0.000, 18:41:19.659, 1560958879659
191, -3490.09, 6761.09, -3677.29, 6500.20, 5162.11, -3372.77, 4679.87, 4926.61, 0.000, 0.000, 0.000, 18:41:19.659, 1560958879659
192, -3490.81, 6760.46, -3677.35, 6499.69, 5162.27, -3370.67, 4681.77, 4927.02, 0.000, 0.000, 0.000, 18:41:19.659, 1560958879659
193, -3491.16, 6760.75, -3676.88, 6499.82, 5162.31, -3369.75, 4682.87, 4926.46, 0.000, 0.000, 0.000, 18:41:19.660, 1560958879660
194, -3490.94, 6760.98, -3677.64, 6500.74, 5162.94, -3370.49, 4680.75, 4926.12, 0.000, 0.000, 0.000, 18:41:19.660, 1560958879660
195, -3489.93, 6760.75, -3675.92, 6500.47, 5161.42, -3371.69, 4680.43, 4925.48, 0.062, 0.072, -1.032, 18:41:19.660, 1560958879660
196, -3487.90, 6760.60, -3675.81, 6499.40, 5160.68, -3372.10, 4681.66, 4925.52, 0.000, 0.000, 0.000, 18:41:19.660, 1560958879660
197, -3491.34, 6761.09, -3676.48, 6499.86, 5160.75, -3371.43, 4682.78, 4924.92, 0.000, 0.000, 0.000, 18:41:19.660, 1560958879660
198, -3491.39, 6760.67, -3676.68, 6498.95, 5161.55, -3371.56, 4680.88, 4925.23, 0.000, 0.000, 0.000, 18:41:19.660, 1560958879660
199, -3491.23, 6759.59, -3676.06, 6498.28, 5161.55, -3371.05, 4680.52, 4925.61, 0.000, 0.000, 0.000, 18:41:19.661, 1560958879661
200, -3490.87, 6760.37, -3676.48, 6498.57, 5161.53, -3368.21, 4680.32, 4926.73, 0.000, 0.000, 0.000, 18:41:19.661, 1560958879661
201, -3491.16, 6761.74, -3677.02, 6499.33, 5160.86, -3370.91, 4680.43, 4927.08, 0.000, 0.000, 0.000, 18:41:19.661, 1560958879661
202, -3492.30, 6761.65, -3677.13, 6499.42, 5162.09, -3368.50, 4680.83, 4926.79, 0.000, 0.000, 0.000, 18:41:19.661, 1560958879661
203, -3491.77, 6760.24, -3677.96, 6499.91, 5162.81, -3369.44, 4681.39, 4926.28, 0.000, 0.000, 0.000, 18:41:19.662, 1560958879662
204, -3491.57, 6759.30, -3677.60, 6499.73, 5162.49, -3371.72, 4680.83, 4925.39, 0.000, 0.000, 0.000, 18:41:19.662, 1560958879662
205, -3491.28, 6759.61, -3676.66, 6499.40, 5161.42, -3371.43, 4680.32, 4924.42, 0.058, 0.070, -1.036, 18:41:19.663, 1560958879663
206, -3491.19, 6759.95, -3675.16, 6500.09, 5162.07, -3369.12, 4681.08, 4925.18, 0.000, 0.000, 0.000, 18:41:19.664, 1560958879664
207, -3491.92, 6760.31, -3675.95, 6499.64, 5161.87, -3369.59, 4680.66, 4925.63, 0.000, 0.000, 0.000, 18:41:19.664, 1560958879664
208, -3491.05, 6760.75, -3676.35, 6499.75, 5161.60, -3370.78, 4680.59, 4926.79, 0.000, 0.000, 0.000, 18:41:19.664, 1560958879664
209, -3490.02, 6760.02, -3676.37, 6499.57, 5161.89, -3370.26, 4679.36, 4925.63, 0.000, 0.000, 0.000, 18:41:19.665, 1560958879665
210, -3490.98, 6759.64, -3675.23, 6499.22, 5160.79, -3368.88, 4679.18, 4924.63, 0.000, 0.000, 0.000, 18:41:19.665, 1560958879665
211, -3487.72, 6760.69, -3675.88, 6500.00, 5161.31, -3368.97, 4680.14, 4925.39, 0.000, 0.000, 0.000, 18:41:19.665, 1560958879665
212, -3488.15, 6760.35, -3677.20, 6501.00, 5162.09, -3371.34, 4681.93, 4926.28, 0.000, 0.000, 0.000, 18:41:19.666, 1560958879666
213, -3490.72, 6759.59, -3675.57, 6499.75, 5162.45, -3371.02, 4682.20, 4924.98, 0.000, 0.000, 0.000, 18:41:19.666, 1560958879666
214, -3490.38, 6759.64, -3675.79, 6499.48, 5161.55, -3367.20, 4681.28, 4924.83, 0.000, 0.000, 0.000, 18:41:19.666, 1560958879666
215, -3488.82, 6760.08, -3676.91, 6500.60, 5161.29, -3368.12, 4681.93, 4925.16, 0.056, 0.076, -1.040, 18:41:19.666, 1560958879666
216, -3490.67, 6759.93, -3677.22, 6500.31, 5161.91, -3371.11, 4682.29, 4926.03, 0.000, 0.000, 0.000, 18:41:19.667, 1560958879667
217, -3491.01, 6759.79, -3678.18, 6500.09, 5161.73, -3371.07, 4681.33, 4927.24, 0.000, 0.000, 0.000, 18:41:19.667, 1560958879667
218, -3489.64, 6760.44, -3677.49, 6500.45, 5162.29, -3370.91, 4680.99, 4927.91, 0.000, 0.000, 0.000, 18:41:19.667, 1560958879667
219, -3490.43, 6760.53, -3676.10, 6499.66, 5162.07, -3371.72, 4681.35, 4926.84, 0.000, 0.000, 0.000, 18:41:19.667, 1560958879667
220, -3490.87, 6760.08, -3677.11, 6499.24, 5161.96, -3372.57, 4682.60, 4926.12, 0.000, 0.000, 0.000, 18:41:19.668, 1560958879668
221, -3490.20, 6760.13, -3677.55, 6499.71, 5161.51, -3371.94, 4681.62, 4925.79, 0.000, 0.000, 0.000, 18:41:19.668, 1560958879668
222, -3489.38, 6760.20, -3678.96, 6499.33, 5161.71, -3372.01, 4680.19, 4926.37, 0.000, 0.000, 0.000, 18:41:19.668, 1560958879668
223, -3489.98, 6760.04, -3677.80, 6498.68, 5161.82, -3372.97, 4682.71, 4926.01, 0.000, 0.000, 0.000, 18:41:19.668, 1560958879668
224, -3490.90, 6759.48, -3676.46, 6498.79, 5161.53, -3370.46, 4683.54, 4926.37, 0.000, 0.000, 0.000, 18:41:19.668, 1560958879668
225, -3490.25, 6759.73, -3677.60, 6500.09, 5162.22, -3369.79, 4681.86, 4926.82, 0.056, 0.078, -1.042, 18:41:19.669, 1560958879669
226, -3489.53, 6760.20, -3677.69, 6499.89, 5161.64, -3369.01, 4680.86, 4926.19, 0.000, 0.000, 0.000, 18:41:19.669, 1560958879669
227, -3489.42, 6760.49, -3677.15, 6500.20, 5161.93, -3367.31, 4681.55, 4925.97, 0.000, 0.000, 0.000, 18:41:19.669, 1560958879669
228, -3490.52, 6759.99, -3676.88, 6499.64, 5162.63, -3371.25, 4681.93, 4925.05, 0.000, 0.000, 0.000, 18:41:19.669, 1560958879669
229, -3491.95, 6760.13, -3678.47, 6498.90, 5163.16, -3371.31, 4682.27, 4925.94, 0.000, 0.000, 0.000, 18:41:19.670, 1560958879670
230, -3494.02, 6760.53, -3678.49, 6499.02, 5162.56, -3371.11, 4681.06, 4925.90, 0.000, 0.000, 0.000, 18:41:19.670, 1560958879670
231, -3492.57, 6760.31, -3675.16, 6499.35, 5162.11, -3371.13, 4681.48, 4926.23, 0.000, 0.000, 0.000, 18:41:19.670, 1560958879670
232, -3490.25, 6759.64, -3676.46, 6499.48, 5162.72, -3371.85, 4683.38, 4927.62, 0.000, 0.000, 0.000, 18:41:19.670, 1560958879670
233, -3491.86, 6759.52, -3677.85, 6499.24, 5162.96, -3370.49, 4683.27, 4926.35, 0.000, 0.000, 0.000, 18:41:19.671, 1560958879671
234, -3490.36, 6759.79, -3678.74, 6499.73, 5163.23, -3369.64, 4682.76, 4926.46, 0.000, 0.000, 0.000, 18:41:19.671, 1560958879671
235, -3491.43, 6760.08, -3678.36, 6499.78, 5162.16, -3371.11, 4680.99, 4925.12, 0.054, 0.070, -1.042, 18:41:19.671, 1560958879671
236, -3491.25, 6760.04, -3678.38, 6500.13, 5162.09, -3371.36, 4681.08, 4926.26, 0.000, 0.000, 0.000, 18:41:19.671, 1560958879671
237, -3490.20, 6760.22, -3677.00, 6500.54, 5162.65, -3371.18, 4681.89, 4927.02, 0.000, 0.000, 0.000, 18:41:19.671, 1560958879671
238, -3489.31, 6760.31, -3677.62, 6499.91, 5162.27, -3369.35, 4681.60, 4927.06, 0.000, 0.000, 0.000, 18:41:19.671, 1560958879671
239, -3487.92, 6760.22, -3677.09, 6498.23, 5161.87, -3373.01, 4682.89, 4925.56, 0.000, 0.000, 0.000, 18:41:19.672, 1560958879672
240, -3490.25, 6760.73, -3678.18, 6499.31, 5161.64, -3371.58, 4682.67, 4925.74, 0.000, 0.000, 0.000, 18:41:19.672, 1560958879672
241, -3493.53, 6759.46, -3676.10, 6500.20, 5161.20, -3371.47, 4681.44, 4924.98, 0.000, 0.000, 0.000, 18:41:20.115, 1560958880115
242, -3490.96, 6760.13, -3676.91, 6499.91, 5162.31, -3371.34, 4682.13, 4926.86, 0.000, 0.000, 0.000, 18:41:20.116, 1560958880116
243, -3490.92, 6760.37, -3675.97, 6499.24, 5162.72, -3369.88, 4682.38, 4926.12, 0.000, 0.000, 0.000, 18:41:20.116, 1560958880116
244, -3491.45, 6759.61, -3675.95, 6498.57, 5162.45, -3370.51, 4683.32, 4924.78, 0.000, 0.000, 0.000, 18:41:20.116, 1560958880116
245, -3490.25, 6759.86, -3675.99, 6498.79, 5161.93, -3371.13, 4680.66, 4924.89, 0.062, 0.068, -1.032, 18:41:20.116, 1560958880116
246, -3489.38, 6759.64, -3678.18, 6499.15, 5161.35, -3370.13, 4680.25, 4925.72, 0.000, 0.000, 0.000, 18:41:20.116, 1560958880116
247, -3490.85, 6759.21, -3677.29, 6500.00, 5162.02, -3368.30, 4680.75, 4926.06, 0.000, 0.000, 0.000, 18:41:20.116, 1560958880116
248, -3492.62, 6759.93, -3675.48, 6499.37, 5161.82, -3370.37, 4682.82, 4925.85, 0.000, 0.000, 0.000, 18:41:20.117, 1560958880117
249, -3490.96, 6759.73, -3674.87, 6498.99, 5161.76, -3372.86, 4682.40, 4924.96, 0.000, 0.000, 0.000, 18:41:20.117, 1560958880117
250, -3489.13, 6759.23, -3674.45, 6498.77, 5160.77, -3371.00, 4680.63, 4925.48, 0.000, 0.000, 0.000, 18:41:20.117, 1560958880117
251, -3489.06, 6760.08, -3676.01, 6498.79, 5160.70, -3369.28, 4680.41, 4925.94, 0.000, 0.000, 0.000, 18:41:20.117, 1560958880117
252, -3491.61, 6760.15, -3675.90, 6498.70, 5161.78, -3371.38, 4680.52, 4924.92, 0.000, 0.000, 0.000, 18:41:20.117, 1560958880117
253, -3490.09, 6759.86, -3676.50, 6499.91, 5162.16, -3370.69, 4682.00, 4925.32, 0.000, 0.000, 0.000, 18:41:20.118, 1560958880118
254, -3490.72, 6759.15, -3676.28, 6499.19, 5160.48, -3371.11, 4681.13, 4925.65, 0.060, 0.064, -1.034, 18:41:20.118, 1560958880118
255, -3491.86, 6760.02, -3676.75, 6498.75, 5160.77, -3370.89, 4680.75, 4925.99, 0.000, 0.000, 0.000, 18:41:20.118, 1560958880118
0, -3491.97, 6759.79, -3677.13, 6498.99, 5160.35, -3371.49, 4680.77, 4926.15, 0.000, 0.000, 0.000, 18:41:20.119, 1560958880119
1, -3490.87, 6759.57, -3677.11, 6499.04, 5161.11, -3371.36, 4681.26, 4925.97, 0.000, 0.000, 0.000, 18:41:20.119, 1560958880119
2, -3490.14, 6759.50, -3675.34, 6499.13, 5162.43, -3371.25, 4682.98, 4924.42, 0.000, 0.000, 0.000, 18:41:20.119, 1560958880119
3, -3490.72, 6759.28, -3675.27, 6498.59, 5162.63, -3370.69, 4682.42, 4925.34, 0.000, 0.000, 0.000, 18:41:20.119, 1560958880119
4, -3490.87, 6759.50, -3678.00, 6499.28, 5162.34, -3372.23, 4680.75, 4926.32, 0.000, 0.000, 0.000, 18:41:20.119, 1560958880119
5, -3491.83, 6759.84, -3675.48, 6498.68, 5160.86, -3370.73, 4680.88, 4927.02, 0.000, 0.000, 0.000, 18:41:20.119, 1560958880119
6, -3491.92, 6759.55, -3676.66, 6498.01, 5160.55, -3371.22, 4681.15, 4926.21, 0.000, 0.000, 0.000, 18:41:20.119, 1560958880119
7, -3490.69, 6758.54, -3678.43, 6497.79, 5160.48, -3370.69, 4681.89, 4925.12, 0.000, 0.000, 0.000, 18:41:20.119, 1560958880119
8, -3492.93, 6758.97, -3676.17, 6498.30, 5161.78, -3371.05, 4682.53, 4925.45, 0.060, 0.070, -1.034, 18:41:20.119, 1560958880119
9, -3491.59, 6759.19, -3675.57, 6498.90, 5163.59, -3370.04, 4682.18, 4926.53, 0.000, 0.000, 0.000, 18:41:20.119, 1560958880119
10, -3489.91, 6760.13, -3674.56, 6499.40, 5162.56, -3372.50, 4682.78, 4926.39, 0.000, 0.000, 0.000, 18:41:20.119, 1560958880119
11, -3490.07, 6760.46, -3674.36, 6498.39, 5161.51, -3373.77, 4682.24, 4926.23, 0.000, 0.000, 0.000, 18:41:20.119, 1560958880119
12, -3489.84, 6759.59, -3676.21, 6497.90, 5161.78, -3372.68, 4681.93, 4926.41, 0.000, 0.000, 0.000, 18:41:20.119, 1560958880119
13, -3490.43, 6759.68, -3677.35, 6498.88, 5161.93, -3370.06, 4680.05, 4926.84, 0.000, 0.000, 0.000, 18:41:20.119, 1560958880119
14, -3490.78, 6759.37, -3677.53, 6499.40, 5161.69, -3370.80, 4681.37, 4926.50, 0.000, 0.000, 0.000, 18:41:20.120, 1560958880120
15, -3491.14, 6760.08, -3676.62, 6499.02, 5161.53, -3372.12, 4681.53, 4926.06, 0.000, 0.000, 0.000, 18:41:20.120, 1560958880120
16, -3491.14, 6760.49, -3674.94, 6498.79, 5161.87, -3372.30, 4682.67, 4928.20, 0.000, 0.000, 0.000, 18:41:20.120, 1560958880120
17, -3490.81, 6760.46, -3676.84, 6499.71, 5162.38, -3372.97, 4682.22, 4927.51, 0.000, 0.000, 0.000, 18:41:20.120, 1560958880120
18, -3492.30, 6759.66, -3678.29, 6498.95, 5162.65, -3372.14, 4681.86, 4926.75, 0.066, 0.068, -1.024, 18:41:20.121, 1560958880121
19, -3492.48, 6759.41, -3676.35, 6497.38, 5162.49, -3373.03, 4682.40, 4925.56, 0.000, 0.000, 0.000, 18:41:20.121, 1560958880121
20, -3490.78, 6759.77, -3678.27, 6497.36, 5161.87, -3372.41, 4680.75, 4925.39, 0.000, 0.000, 0.000, 18:41:20.121, 1560958880121
21, -3493.71, 6760.13, -3677.60, 6497.74, 5162.11, -3371.56, 4681.44, 4926.73, 0.000, 0.000, 0.000, 18:41:20.121, 1560958880121
22, -3491.50, 6760.28, -3675.39, 6497.70, 5162.87, -3371.22, 4681.53, 4925.16, 0.000, 0.000, 0.000, 18:41:20.121, 1560958880121
23, -3491.28, 6759.28, -3678.11, 6498.19, 5162.29, -3369.30, 4682.47, 4924.18, 0.000, 0.000, 0.000, 18:41:20.121, 1560958880121
24, -3491.81, 6759.32, -3677.96, 6498.88, 5162.85, -3368.77, 4681.91, 4925.45, 0.000, 0.000, 0.000, 18:41:20.121, 1560958880121
25, -3490.49, 6759.37, -3676.84, 6498.50, 5162.98, -3370.87, 4682.53, 4925.92, 0.000, 0.000, 0.000, 18:41:20.121, 1560958880121
26, -3491.81, 6760.11, -3676.66, 6498.99, 5162.38, -3370.40, 4683.50, 4926.03, 0.000, 0.000, 0.000, 18:41:20.121, 1560958880121
27, -3491.39, 6760.04, -3678.00, 6498.68, 5162.09, -3371.78, 4683.00, 4927.40, 0.000, 0.000, 0.000, 18:41:20.121, 1560958880121
28, -3491.01, 6759.68, -3678.63, 6497.85, 5161.22, -3372.01, 4682.85, 4925.65, 0.060, 0.068, -1.028, 18:41:20.121, 1560958880121
29, -3492.37, 6759.46, -3678.67, 6498.50, 5161.91, -3369.17, 4681.44, 4925.70, 0.000, 0.000, 0.000, 18:41:20.121, 1560958880121
30, -3493.15, 6759.79, -3676.91, 6499.33, 5163.03, -3370.15, 4682.29, 4926.86, 0.000, 0.000, 0.000, 18:41:20.123, 1560958880123
31, -3491.54, 6760.24, -3677.53, 6498.90, 5163.39, -3371.92, 4681.82, 4927.04, 0.000, 0.000, 0.000, 18:41:20.123, 1560958880123
32, -3491.10, 6759.66, -3677.55, 6497.92, 5162.34, -3371.89, 4682.27, 4926.84, 0.000, 0.000, 0.000, 18:41:20.123, 1560958880123
33, -3491.88, 6758.59, -3678.34, 6497.41, 5160.82, -3371.72, 4682.38, 4926.21, 0.000, 0.000, 0.000, 18:41:20.123, 1560958880123
34, -3491.39, 6758.92, -3678.36, 6498.48, 5160.62, -3371.74, 4681.75, 4926.30, 0.000, 0.000, 0.000, 18:41:20.123, 1560958880123
35, -3492.48, 6758.74, -3676.17, 6497.90, 5162.05, -3371.72, 4681.71, 4925.88, 0.000, 0.000, 0.000, 18:41:20.123, 1560958880123
36, -3492.35, 6759.37, -3678.36, 6498.68, 5162.98, -3368.65, 4682.56, 4926.75, 0.000, 0.000, 0.000, 18:41:20.123, 1560958880123
37, -3491.81, 6759.90, -3678.52, 6499.06, 5163.32, -3366.46, 4681.42, 4926.37, 0.000, 0.000, 0.000, 18:41:20.123, 1560958880123
38, -3493.67, 6759.39, -3677.20, 6498.50, 5163.10, -3369.03, 4682.27, 4925.41, 0.060, 0.066, -1.028, 18:41:20.123, 1560958880123
39, -3491.05, 6760.24, -3678.11, 6498.64, 5162.74, -3371.13, 4681.21, 4925.48, 0.000, 0.000, 0.000, 18:41:20.124, 1560958880124
40, -3491.88, 6760.28, -3676.68, 6498.19, 5162.14, -3371.36, 4680.86, 4927.02, 0.000, 0.000, 0.000, 18:41:20.124, 1560958880124
41, -3492.15, 6759.52, -3679.14, 6498.19, 5162.65, -3371.78, 4680.21, 4925.65, 0.000, 0.000, 0.000, 18:41:20.124, 1560958880124
42, -3493.06, 6759.84, -3678.72, 6498.39, 5162.67, -3370.78, 4681.68, 4925.54, 0.000, 0.000, 0.000, 18:41:20.124, 1560958880124
43, -3491.43, 6759.37, -3677.51, 6498.79, 5163.01, -3369.61, 4682.78, 4924.92, 0.000, 0.000, 0.000, 18:41:20.124, 1560958880124
44, -3490.76, 6759.19, -3677.67, 6498.64, 5162.20, -3370.64, 4683.52, 4926.39, 0.000, 0.000, 0.000, 18:41:20.124, 1560958880124
45, -3489.02, 6759.19, -3677.42, 6499.62, 5162.45, -3370.64, 4683.52, 4925.83, 0.000, 0.000, 0.000, 18:41:20.124, 1560958880124
46, -3488.62, 6758.92, -3678.25, 6499.57, 5161.98, -3371.00, 4683.09, 4925.50, 0.000, 0.000, 0.000, 18:41:20.124, 1560958880124
47, -3490.25, 6759.48, -3677.11, 6498.97, 5161.60, -3372.03, 4683.74, 4925.94, 0.000, 0.000, 0.000, 18:41:20.125, 1560958880125
48, -3490.11, 6759.75, -3675.97, 6498.10, 5161.60, -3371.05, 4683.43, 4925.88, 0.062, 0.066, -1.024, 18:41:20.125, 1560958880125
49, -3488.91, 6759.61, -3675.68, 6498.72, 5162.78, -3371.25, 4682.82, 4926.57, 0.000, 0.000, 0.000, 18:41:20.125, 1560958880125
50, -3491.52, 6759.48, -3676.12, 6498.39, 5163.61, -3368.90, 4682.76, 4926.28, 0.000, 0.000, 0.000, 18:41:20.125, 1560958880125
51, -3492.04, 6759.01, -3676.71, 6498.66, 5162.36, -3370.62, 4684.23, 4925.59, 0.000, 0.000, 0.000, 18:41:20.126, 1560958880126
52, -3490.49, 6758.97, -3678.69, 6498.90, 5160.68, -3370.87, 4683.07, 4925.72, 0.000, 0.000, 0.000, 18:41:20.126, 1560958880126
53, -3489.98, 6758.94, -3677.82, 6498.86, 5162.20, -3371.56, 4682.71, 4925.94, 0.000, 0.000, 0.000, 18:41:20.126, 1560958880126
54, -3491.30, 6759.15, -3678.00, 6498.84, 5162.20, -3371.20, 4681.84, 4926.39, 0.000, 0.000, 0.000, 18:41:20.126, 1560958880126
55, -3490.94, 6759.66, -3677.17, 6498.93, 5162.07, -3369.06, 4681.19, 4925.74, 0.000, 0.000, 0.000, 18:41:20.126, 1560958880126
56, -3492.15, 6759.15, -3677.85, 6499.06, 5162.54, -3371.02, 4681.33, 4925.07, 0.000, 0.000, 0.000, 18:41:20.126, 1560958880126
57, -3490.92, 6758.25, -3677.55, 6498.23, 5163.27, -3371.36, 4681.08, 4925.68, 0.000, 0.000, 0.000, 18:41:20.126, 1560958880126
58, -3490.90, 6758.30, -3677.71, 6498.05, 5162.31, -3370.49, 4680.97, 4925.90, 0.064, 0.064, -1.028, 18:41:20.126, 1560958880126
59, -3489.49, 6758.12, -3676.33, 6497.92, 5161.49, -3370.13, 4680.97, 4925.39, 0.000, 0.000, 0.000, 18:41:20.127, 1560958880127
60, -3489.38, 6758.65, -3676.79, 6498.32, 5161.71, -3370.31, 4680.75, 4926.28, 0.000, 0.000, 0.000, 18:41:20.127, 1560958880127
61, -3489.35, 6759.26, -3676.28, 6497.85, 5162.29, -3370.49, 4681.51, 4927.71, 0.000, 0.000, 0.000, 18:41:20.128, 1560958880128
62, -3490.20, 6759.08, -3676.01, 6497.09, 5162.58, -3370.84, 4681.55, 4927.17, 0.000, 0.000, 0.000, 18:41:20.128, 1560958880128
63, -3491.07, 6758.88, -3677.67, 6498.05, 5162.94, -3370.17, 4681.46, 4926.46, 0.000, 0.000, 0.000, 18:41:20.128, 1560958880128
64, -3492.15, 6758.83, -3679.32, 6499.17, 5162.60, -3372.27, 4681.77, 4925.94, 0.000, 0.000, 0.000, 18:41:20.129, 1560958880129
65, -3490.69, 6759.68, -3677.76, 6498.81, 5161.87, -3372.70, 4681.71, 4925.61, 0.000, 0.000, 0.000, 18:41:20.130, 1560958880130
66, -3489.33, 6760.04, -3676.91, 6499.57, 5163.23, -3371.13, 4682.76, 4926.50, 0.000, 0.000, 0.000, 18:41:20.130, 1560958880130
67, -3490.02, 6759.82, -3675.72, 6500.96, 5162.90, -3372.43, 4683.83, 4927.04, 0.000, 0.000, 0.000, 18:41:20.130, 1560958880130
68, -3492.44, 6758.97, -3675.59, 6499.91, 5162.74, -3373.03, 4683.72, 4926.46, 0.058, 0.068, -1.026, 18:41:20.130, 1560958880130
69, -3491.43, 6758.56, -3676.21, 6499.08, 5162.78, -3372.81, 4682.09, 4926.17, 0.000, 0.000, 0.000, 18:41:20.130, 1560958880130
70, -3490.20, 6758.41, -3677.06, 6498.64, 5162.98, -3369.93, 4680.90, 4926.08, 0.000, 0.000, 0.000, 18:41:20.130, 1560958880130
71, -3490.36, 6758.18, -3677.00, 6498.05, 5161.29, -3369.93, 4682.49, 4925.21, 0.000, 0.000, 0.000, 18:41:20.130, 1560958880130
72, -3491.25, 6758.72, -3677.09, 6499.40, 5162.96, -3368.99, 4684.55, 4925.52, 0.000, 0.000, 0.000, 18:41:20.131, 1560958880131
73, -3490.76, 6759.06, -3676.44, 6499.26, 5162.63, -3368.34, 4681.82, 4926.84, 0.000, 0.000, 0.000, 18:41:20.131, 1560958880131
74, -3490.58, 6758.52, -3676.48, 6498.41, 5161.22, -3370.40, 4680.97, 4926.17, 0.000, 0.000, 0.000, 18:41:20.131, 1560958880131
75, -3492.68, 6759.26, -3675.88, 6498.93, 5161.82, -3370.93, 4683.63, 4926.32, 0.000, 0.000, 0.000, 18:41:20.131, 1560958880131
76, -3491.50, 6759.41, -3675.90, 6498.30, 5162.40, -3369.66, 4682.44, 4927.29, 0.000, 0.000, 0.000, 18:41:20.132, 1560958880132
77, -3489.60, 6759.08, -3676.59, 6497.16, 5162.00, -3370.80, 4680.81, 4926.64, 0.000, 0.000, 0.000, 18:41:20.132, 1560958880132
78, -3490.65, 6759.32, -3676.71, 6499.26, 5162.54, -3372.12, 4681.71, 4925.01, 0.054, 0.068, -1.030, 18:41:20.132, 1560958880132
79, -3489.76, 6758.50, -3675.59, 6499.46, 5162.38, -3373.84, 4682.22, 4924.56, 0.000, 0.000, 0.000, 18:41:20.132, 1560958880132
80, -3490.20, 6758.34, -3676.39, 6499.08, 5162.31, -3370.75, 4682.94, 4925.01, 0.000, 0.000, 0.000, 18:41:20.132, 1560958880132
81, -3490.36, 6758.81, -3676.44, 6499.28, 5162.54, -3369.39, 4682.02, 4925.70, 0.000, 0.000, 0.000, 18:41:20.132, 1560958880132
82, -3490.60, 6759.26, -3676.91, 6499.40, 5162.09, -3367.80, 4682.76, 4925.14, 0.000, 0.000, 0.000, 18:41:20.132, 1560958880132
83, -3490.94, 6759.23, -3678.23, 6499.40, 5162.18, -3369.21, 4682.02, 4925.85, 0.000, 0.000, 0.000, 18:41:20.133, 1560958880133
84, -3490.60, 6759.26, -3676.95, 6498.97, 5161.64, -3370.29, 4682.40, 4924.85, 0.000, 0.000, 0.000, 18:41:20.133, 1560958880133
85, -3489.38, 6759.93, -3676.82, 6498.75, 5162.38, -3371.40, 4681.86, 4925.70, 0.000, 0.000, 0.000, 18:41:20.133, 1560958880133
86, -3489.62, 6759.86, -3678.29, 6498.59, 5161.51, -3372.14, 4681.51, 4927.20, 0.000, 0.000, 0.000, 18:41:20.133, 1560958880133
87, -3490.90, 6758.90, -3677.51, 6498.52, 5161.64, -3372.25, 4682.20, 4926.55, 0.000, 0.000, 0.000, 18:41:20.133, 1560958880133
88, -3492.64, 6758.34, -3677.00, 6497.92, 5161.49, -3373.97, 4681.53, 4926.75, 0.058, 0.070, -1.026, 18:41:20.138, 1560958880138
89, -3492.33, 6758.41, -3674.94, 6497.79, 5161.31, -3372.74, 4681.73, 4926.59, 0.000, 0.000, 0.000, 18:41:20.138, 1560958880138
90, -3491.66, 6759.39, -3676.30, 6498.61, 5162.05, -3372.14, 4683.47, 4926.37, 0.000, 0.000, 0.000, 18:41:20.138, 1560958880138
91, -3491.05, 6758.59, -3676.44, 6498.52, 5162.52, -3369.79, 4682.69, 4926.61, 0.000, 0.000, 0.000, 18:41:20.139, 1560958880139
92, -3491.03, 6758.41, -3677.22, 6498.61, 5162.22, -3370.17, 4683.63, 4926.48, 0.000, 0.000, 0.000, 18:41:20.139, 1560958880139
93, -3488.88, 6758.94, -3679.25, 6498.84, 5162.54, -3370.22, 4684.61, 4925.83, 0.000, 0.000, 0.000, 18:41:20.140, 1560958880140
94, -3491.10, 6759.19, -3677.33, 6499.17, 5162.31, -3371.76, 4682.35, 4925.97, 0.000, 0.000, 0.000, 18:41:20.141, 1560958880141
95, -3491.70, 6757.98, -3675.50, 6498.97, 5162.20, -3372.03, 4681.04, 4925.34, 0.000, 0.000, 0.000, 18:41:20.141, 1560958880141
96, -3490.90, 6758.34, -3676.79, 6498.52, 5162.65, -3370.49, 4682.58, 4925.25, 0.000, 0.000, 0.000, 18:41:20.141, 1560958880141
97, -3491.57, 6758.25, -3676.88, 6498.39, 5161.49, -3368.63, 4682.58, 4925.30, 0.000, 0.000, 0.000, 18:41:20.141, 1560958880141
98, -3491.10, 6759.70, -3677.31, 6497.96, 5162.40, -3369.44, 4681.42, 4927.24, 0.054, 0.068, -1.030, 18:41:20.141, 1560958880141
99, -3492.21, 6759.70, -3677.13, 6498.08, 5162.54, -3372.30, 4681.57, 4926.75, 0.000, 0.000, 0.000, 18:41:20.141, 1560958880141
100, -3492.33, 6759.35, -3678.81, 6499.04, 5161.98, -3370.37, 4681.44, 4926.53, 0.000, 0.000, 0.000, 18:41:20.142, 1560958880142
101, -3492.08, 6759.48, -3676.66, 6498.43, 5161.73, -3367.87, 4683.67, 4926.50, 0.000, 0.000, 0.000, 18:41:20.142, 1560958880142
102, -3493.60, 6760.28, -3676.46, 6497.61, 5161.96, -3368.45, 4683.83, 4926.46, 0.000, 0.000, 0.000, 18:41:20.142, 1560958880142
103, -3491.70, 6759.79, -3674.67, 6498.93, 5163.05, -3369.82, 4683.99, 4925.79, 0.000, 0.000, 0.000, 18:41:20.142, 1560958880142
104, -3491.81, 6759.68, -3676.01, 6499.37, 5164.26, -3372.14, 4682.56, 4926.66, 0.000, 0.000, 0.000, 18:41:20.142, 1560958880142
105, -3491.88, 6759.57, -3676.33, 6499.62, 5163.23, -3369.79, 4681.35, 4927.02, 0.000, 0.000, 0.000, 18:41:20.372, 1560958880372
106, -3492.10, 6758.85, -3676.08, 6498.86, 5162.05, -3369.17, 4681.91, 4926.95, 0.000, 0.000, 0.000, 18:41:20.373, 1560958880373
107, -3492.91, 6758.56, -3677.47, 6499.31, 5160.55, -3369.84, 4681.66, 4927.80, 0.000, 0.000, 0.000, 18:41:20.373, 1560958880373
108, -3491.43, 6758.41, -3675.48, 6499.53, 5160.57, -3372.92, 4683.25, 4927.62, 0.054, 0.068, -1.032, 18:41:20.373, 1560958880373
109, -3490.81, 6758.50, -3676.26, 6499.37, 5161.51, -3373.53, 4682.49, 4926.53, 0.000, 0.000, 0.000, 18:41:20.373, 1560958880373
110, -3491.92, 6758.59, -3677.13, 6499.02, 5162.96, -3372.74, 4681.71, 4926.73, 0.000, 0.000, 0.000, 18:41:20.373, 1560958880373
111, -3491.43, 6759.37, -3678.65, 6498.43, 5163.99, -3371.78, 4682.78, 4927.31, 0.000, 0.000, 0.000, 18:41:20.373, 1560958880373
112, -3491.86, 6758.88, -3679.90, 6497.50, 5162.27, -3372.19, 4682.40, 4927.29, 0.000, 0.000, 0.000, 18:41:20.373, 1560958880373
113, -3492.21, 6758.50, -3677.51, 6498.34, 5161.71, -3371.76, 4683.56, 4926.88, 0.000, 0.000, 0.000, 18:41:20.373, 1560958880373
114, -3492.75, 6758.03, -3677.55, 6497.65, 5162.52, -3369.73, 4682.40, 4926.15, 0.000, 0.000, 0.000, 18:41:20.373, 1560958880373
115, -3491.21, 6758.36, -3677.17, 6497.79, 5162.94, -3371.13, 4683.05, 4925.88, 0.000, 0.000, 0.000, 18:41:20.373, 1560958880373
116, -3491.41, 6758.07, -3674.56, 6498.79, 5162.05, -3372.07, 4683.00, 4927.35, 0.000, 0.000, 0.000, 18:41:20.374, 1560958880374
117, -3489.13, 6757.80, -3676.10, 6498.79, 5162.05, -3371.74, 4683.27, 4927.35, 0.052, 0.070, -1.034, 18:41:20.374, 1560958880374
118, -3490.16, 6758.38, -3678.00, 6498.19, 5162.27, -3370.04, 4682.38, 4927.49, 0.000, 0.000, 0.000, 18:41:20.374, 1560958880374
119, -3490.07, 6758.12, -3678.43, 6497.72, 5162.38, -3371.58, 4680.92, 4926.61, 0.000, 0.000, 0.000, 18:41:20.374, 1560958880374
120, -3492.93, 6759.23, -3676.01, 6498.95, 5163.12, -3370.84, 4681.53, 4926.70, 0.000, 0.000, 0.000, 18:41:20.374, 1560958880374
121, -3494.34, 6759.48, -3676.62, 6498.41, 5162.67, -3369.57, 4681.60, 4925.90, 0.000, 0.000, 0.000, 18:41:20.374, 1560958880374
122, -3493.11, 6758.56, -3676.33, 6498.12, 5161.42, -3369.55, 4681.80, 4925.59, 0.000, 0.000, 0.000, 18:41:20.374, 1560958880374
123, -3492.10, 6758.25, -3675.39, 6497.63, 5161.33, -3369.32, 4681.82, 4926.86, 0.000, 0.000, 0.000, 18:41:20.374, 1560958880374
124, -3491.36, 6758.41, -3675.14, 6497.45, 5161.46, -3371.45, 4683.23, 4925.74, 0.000, 0.000, 0.000, 18:41:20.375, 1560958880375
125, -3489.40, 6759.35, -3677.51, 6497.54, 5162.29, -3370.75, 4683.74, 4925.41, 0.000, 0.000, 0.000, 18:41:20.375, 1560958880375
126, -3491.66, 6758.52, -3676.24, 6497.96, 5162.16, -3371.11, 4683.76, 4924.33, 0.000, 0.000, 0.000, 18:41:20.375, 1560958880375
127, -3492.84, 6757.67, -3677.42, 6498.79, 5162.29, -3371.85, 4682.98, 4924.83, 0.052, 0.070, -1.032, 18:41:20.375, 1560958880375
128, -3491.16, 6758.23, -3678.63, 6499.08, 5163.88, -3372.63, 4679.00, 4926.12, 0.000, 0.000, 0.000, 18:41:20.375, 1560958880375
129, -3489.15, 6758.45, -3677.62, 6498.88, 5163.07, -3371.72, 4679.83, 4926.84, 0.000, 0.000, 0.000, 18:41:20.375, 1560958880375
130, -3489.55, 6758.09, -3676.08, 6498.19, 5162.94, -3372.34, 4682.04, 4926.28, 0.000, 0.000, 0.000, 18:41:20.375, 1560958880375
131, -3492.95, 6757.60, -3676.28, 6496.96, 5162.78, -3370.71, 4683.41, 4926.15, 0.000, 0.000, 0.000, 18:41:20.376, 1560958880376
132, -3492.30, 6758.21, -3678.11, 6497.38, 5162.76, -3371.25, 4683.88, 4926.59, 0.000, 0.000, 0.000, 18:41:20.377, 1560958880377
133, -3493.06, 6757.65, -3676.53, 6498.26, 5162.56, -3370.02, 4682.82, 4926.70, 0.000, 0.000, 0.000, 18:41:20.377, 1560958880377
134, -3493.02, 6757.89, -3677.24, 6499.10, 5162.94, -3369.35, 4682.38, 4925.90, 0.000, 0.000, 0.000, 18:41:20.377, 1560958880377
135, -3493.09, 6758.43, -3678.56, 6498.95, 5162.38, -3369.97, 4681.24, 4925.63, 0.000, 0.000, 0.000, 18:41:20.378, 1560958880378
136, -3492.66, 6758.61, -3676.79, 6498.90, 5162.76, -3370.91, 4680.41, 4926.97, 0.000, 0.000, 0.000, 18:41:20.378, 1560958880378
137, -3491.70, 6758.81, -3676.21, 6498.68, 5163.68, -3370.93, 4681.60, 4927.29, 0.054, 0.074, -1.036, 18:41:20.378, 1560958880378
138, -3493.91, 6758.43, -3676.91, 6498.66, 5163.66, -3369.88, 4682.15, 4926.73, 0.000, 0.000, 0.000, 18:41:20.378, 1560958880378
139, -3492.64, 6758.88, -3676.77, 6498.23, 5162.38, -3372.25, 4680.90, 4926.37, 0.000, 0.000, 0.000, 18:41:20.379, 1560958880379
140, -3492.71, 6759.06, -3677.02, 6497.96, 5162.83, -3372.36, 4681.44, 4927.24, 0.000, 0.000, 0.000, 18:41:20.379, 1560958880379
141, -3491.61, 6758.25, -3678.11, 6497.90, 5162.36, -3370.80, 4681.75, 4926.17, 0.000, 0.000, 0.000, 18:41:20.379, 1560958880379
142, -3490.09, 6758.97, -3677.67, 6500.18, 5162.69, -3371.72, 4682.51, 4926.82, 0.000, 0.000, 0.000, 18:41:20.379, 1560958880379
143, -3491.14, 6759.08, -3676.46, 6500.02, 5163.27, -3370.04, 4684.41, 4928.36, 0.000, 0.000, 0.000, 18:41:20.380, 1560958880380
144, -3491.79, 6758.21, -3676.28, 6498.95, 5161.87, -3371.40, 4682.76, 4926.10, 0.000, 0.000, 0.000, 18:41:20.380, 1560958880380
145, -3493.31, 6758.25, -3675.83, 6498.30, 5162.58, -3372.45, 4681.91, 4927.02, 0.000, 0.000, 0.000, 18:41:20.380, 1560958880380
146, -3493.26, 6758.54, -3675.03, 6498.75, 5162.49, -3369.79, 4681.95, 4926.70, 0.000, 0.000, 0.000, 18:41:20.380, 1560958880380
147, -3492.10, 6759.12, -3675.95, 6498.19, 5161.98, -3370.24, 4682.76, 4926.35, 0.052, 0.076, -1.034, 18:41:20.380, 1560958880380
148, -3491.54, 6758.59, -3676.44, 6498.14, 5162.81, -3371.22, 4682.00, 4926.17, 0.000, 0.000, 0.000, 18:41:20.380, 1560958880380
149, -3491.59, 6758.59, -3676.71, 6499.13, 5163.21, -3370.11, 4681.73, 4925.99, 0.000, 0.000, 0.000, 18:41:20.381, 1560958880381
150, -3489.49, 6759.50, -3676.06, 6499.31, 5163.32, -3370.24, 4682.89, 4926.86, 0.000, 0.000, 0.000, 18:41:20.381, 1560958880381
151, -3489.67, 6759.23, -3676.62, 6498.01, 5162.00, -3372.41, 4683.23, 4926.93, 0.000, 0.000, 0.000, 18:41:20.381, 1560958880381
152, -3491.48, 6759.77, -3677.82, 6497.56, 5163.36, -3372.16, 4681.66, 4926.95, 0.000, 0.000, 0.000, 18:41:20.381, 1560958880381
153, -3490.43, 6759.26, -3677.71, 6498.34, 5163.32, -3371.43, 4681.55, 4927.20, 0.000, 0.000, 0.000, 18:41:20.381, 1560958880381
154, -3492.04, 6759.66, -3679.61, 6498.66, 5162.49, -3370.98, 4682.89, 4926.91, 0.000, 0.000, 0.000, 18:41:20.381, 1560958880381
155, -3493.73, 6758.79, -3677.17, 6497.85, 5162.90, -3369.55, 4683.32, 4925.83, 0.000, 0.000, 0.000, 18:41:20.381, 1560958880381
156, -3492.77, 6758.68, -3677.82, 6497.32, 5162.16, -3370.71, 4683.23, 4926.66, 0.000, 0.000, 0.000, 18:41:20.381, 1560958880381
157, -3491.01, 6758.18, -3678.07, 6497.05, 5162.27, -3371.78, 4682.42, 4927.96, 0.056, 0.070, -1.034, 18:41:20.381, 1560958880381
158, -3491.54, 6758.30, -3678.52, 6497.03, 5162.31, -3372.36, 4682.15, 4926.73, 0.000, 0.000, 0.000, 18:41:20.381, 1560958880381
159, -3491.88, 6759.37, -3678.56, 6497.07, 5162.56, -3371.98, 4681.06, 4926.57, 0.000, 0.000, 0.000, 18:41:20.381, 1560958880381
160, -3494.09, 6759.15, -3677.93, 6497.34, 5162.81, -3370.22, 4682.71, 4926.01, 0.000, 0.000, 0.000, 18:41:20.382, 1560958880382
161, -3493.78, 6758.63, -3678.07, 6497.38, 5163.16, -3369.57, 4682.98, 4926.06, 0.000, 0.000, 0.000, 18:41:20.382, 1560958880382
162, -3493.49, 6759.93, -3678.78, 6498.84, 5163.54, -3368.97, 4681.08, 4926.28, 0.000, 0.000, 0.000, 18:41:20.382, 1560958880382
163, -3492.50, 6760.31, -3677.13, 6498.86, 5162.72, -3371.13, 4681.89, 4925.81, 0.000, 0.000, 0.000, 18:41:20.382, 1560958880382
164, -3493.38, 6758.83, -3675.74, 6498.26, 5162.27, -3374.31, 4682.22, 4927.17, 0.000, 0.000, 0.000, 18:41:20.382, 1560958880382
165, -3492.62, 6758.36, -3675.63, 6498.39, 5162.60, -3373.75, 4682.89, 4926.91, 0.000, 0.000, 0.000, 18:41:20.382, 1560958880382
166, -3491.32, 6758.50, -3675.41, 6498.23, 5162.67, -3373.66, 4684.19, 4926.99, 0.000, 0.000, 0.000, 18:41:20.382, 1560958880382
0, 12459.96, 12068.20, 10405.65, 12999.71, 479.09, 3289.13, 18999.50, 6390.43, 0.030, 0.030, -0.516, 18:41:33.133, 1560958893133
1, 12453.81, 12063.42, 10400.56, 13005.23, 480.81, 3294.85, 19016.51, 6404.80, 0.000, 0.000, 0.000, 18:41:33.134, 1560958893134
2, 12451.44, 12063.15, 10396.35, 13003.01, 478.73, 3291.65, 19007.77, 6405.63, 0.000, 0.000, 0.000, 18:41:33.134, 1560958893134
3, 12445.65, 12059.77, 10385.13, 12993.02, 469.86, 3277.35, 18974.13, 6391.68, 0.000, 0.000, 0.000, 18:41:33.134, 1560958893134
4, 12441.05, 12056.33, 10380.87, 12986.68, 465.27, 3265.61, 18963.02, 6387.35, 0.000, 0.000, 0.000, 18:41:33.134, 1560958893134
5, 12434.23, 12050.65, 10377.85, 12985.11, 468.78, 3264.16, 18990.22, 6400.13, 0.000, 0.000, 0.000, 18:41:33.135, 1560958893135
6, 12432.96, 12053.04, 10371.50, 12981.69, 471.60, 3265.03, 19011.12, 6412.80, 0.000, 0.000, 0.000, 18:41:33.135, 1560958893135
7, 12433.34, 12043.75, 10365.24, 12976.04, 470.53, 3260.76, 19001.82, 6410.35, 0.046, 0.050, -0.772, 18:41:33.135, 1560958893135
8, 12432.35, 12039.77, 10366.76, 12979.12, 468.22, 3255.40, 18971.45, 6397.25, 0.000, 0.000, 0.000, 18:41:33.135, 1560958893135
9, 12427.08, 12043.72, 10367.61, 12981.69, 463.33, 3246.23, 18964.20, 6388.87, 0.000, 0.000, 0.000, 18:41:33.136, 1560958893136
10, 12430.01, 12048.95, 10369.73, 12980.35, 464.04, 3247.44, 18985.66, 6398.61, 0.000, 0.000, 0.000, 18:41:33.136, 1560958893136
11, 12433.07, 12051.01, 10372.30, 12984.91, 470.79, 3252.76, 19005.31, 6413.05, 0.000, 0.000, 0.000, 18:41:33.136, 1560958893136
12, 12431.77, 12053.18, 10368.13, 12984.37, 467.96, 3246.39, 18985.57, 6408.18, 0.000, 0.000, 0.000, 18:41:33.137, 1560958893137
13, 12429.87, 12048.17, 10363.77, 12975.30, 461.70, 3233.83, 18958.55, 6397.14, 0.000, 0.000, 0.000, 18:41:33.137, 1560958893137
14, 12424.73, 12041.17, 10359.94, 12968.68, 458.86, 3228.84, 18964.11, 6395.19, 0.000, 0.000, 0.000, 18:41:33.137, 1560958893137
15, 12423.84, 12042.56, 10358.60, 12969.60, 457.90, 3234.74, 18995.03, 6406.84, 0.000, 0.000, 0.000, 18:41:33.138, 1560958893138
16, 12418.14, 12043.79, 10354.15, 12971.16, 456.62, 3235.77, 19005.40, 6416.14, 0.000, 0.000, 0.000, 18:41:33.138, 1560958893138
17, 12418.65, 12039.05, 10349.44, 12974.90, 451.15, 3228.49, 18983.96, 6409.23, 0.052, 0.058, -0.904, 18:41:33.139, 1560958893139
18, 12415.79, 12032.77, 10339.96, 12972.19, 440.04, 3217.20, 18954.75, 6395.15, 0.000, 0.000, 0.000, 18:41:33.139, 1560958893139
19, 12413.29, 12032.41, 10338.04, 12973.71, 438.30, 3212.35, 18950.46, 6393.34, 0.000, 0.000, 0.000, 18:41:33.139, 1560958893139
20, 12407.94, 12035.25, 10340.36, 12971.12, 441.07, 3211.25, 18966.66, 6399.51, 0.000, 0.000, 0.000, 18:41:33.140, 1560958893140
21, 12410.38, 12042.11, 10343.36, 12969.89, 450.45, 3215.21, 18991.18, 6411.66, 0.000, 0.000, 0.000, 18:41:33.140, 1560958893140
22, 12409.71, 12036.77, 10344.41, 12962.71, 451.37, 3204.61, 18980.01, 6407.40, 0.000, 0.000, 0.000, 18:41:33.140, 1560958893140
23, 12414.63, 12028.61, 10341.53, 12959.41, 447.03, 3195.70, 18955.31, 6392.69, 0.000, 0.000, 0.000, 18:41:33.141, 1560958893141
24, 12415.34, 12031.68, 10339.83, 12960.88, 443.70, 3191.11, 18945.96, 6381.74, 0.000, 0.000, 0.000, 18:41:33.141, 1560958893141
25, 12413.51, 12039.28, 10336.99, 12958.51, 444.22, 3191.90, 18958.86, 6384.84, 0.000, 0.000, 0.000, 18:41:33.141, 1560958893141
26, 12403.83, 12037.84, 10333.46, 12962.92, 445.67, 3193.26, 18972.92, 6393.14, 0.052, 0.068, -0.962, 18:41:33.195, 1560958893195
27, 12403.00, 12032.68, 10330.26, 12968.12, 444.84, 3190.62, 18968.09, 6389.56, 0.000, 0.000, 0.000, 18:41:33.195, 1560958893195
28, 12401.69, 12032.64, 10331.13, 12965.96, 445.49, 3185.93, 18954.46, 6377.82, 0.000, 0.000, 0.000, 18:41:33.196, 1560958893196
29, 12392.23, 12026.58, 10327.98, 12960.57, 441.76, 3180.85, 18941.78, 6371.41, 0.000, 0.000, 0.000, 18:41:33.196, 1560958893196
30, 12392.05, 12029.31, 10327.69, 12960.30, 444.33, 3185.03, 18965.48, 6383.95, 0.000, 0.000, 0.000, 18:41:33.196, 1560958893196
31, 12394.24, 12028.90, 10316.22, 12956.10, 443.26, 3187.83, 18985.53, 6392.33, 0.000, 0.000, 0.000, 18:41:33.197, 1560958893197
32, 12395.47, 12025.39, 10312.20, 12954.56, 437.60, 3183.80, 18973.10, 6389.38, 0.000, 0.000, 0.000, 18:41:33.197, 1560958893197
33, 12387.11, 12020.48, 10308.38, 12952.19, 428.15, 3170.82, 18945.36, 6375.03, 0.000, 0.000, 0.000, 18:41:33.197, 1560958893197
34, 12383.56, 12023.94, 10304.47, 12954.00, 424.28, 3159.89, 18936.35, 6368.55, 0.000, 0.000, 0.000, 18:41:33.197, 1560958893197
35, 12388.52, 12021.57, 10304.98, 12953.91, 423.70, 3160.89, 18953.18, 6377.58, 0.000, 0.000, 0.000, 18:41:33.198, 1560958893198
36, 12385.39, 12020.28, 10304.00, 12952.37, 426.34, 3162.06, 18967.38, 6389.09, 0.054, 0.068, -0.998, 18:41:33.198, 1560958893198
37, 12382.13, 12024.70, 10298.63, 12945.48, 422.25, 3152.78, 18956.42, 6383.21, 0.000, 0.000, 0.000, 18:41:33.198, 1560958893198
38, 12382.13, 12023.96, 10301.20, 12943.63, 417.46, 3144.40, 18920.95, 6368.19, 0.000, 0.000, 0.000, 18:41:33.198, 1560958893198
39, 12384.59, 12021.97, 10304.13, 12951.20, 419.41, 3140.96, 18916.46, 6364.57, 0.000, 0.000, 0.000, 18:41:33.199, 1560958893199
40, 12386.87, 12024.72, 10307.53, 12952.75, 425.85, 3146.19, 18934.01, 6373.60, 0.000, 0.000, 0.000, 18:41:33.199, 1560958893199
41, 12386.08, 12026.11, 10309.25, 12959.85, 430.79, 3157.41, 18950.59, 6385.76, 0.000, 0.000, 0.000, 18:41:33.199, 1560958893199
42, 12382.93, 12027.94, 10311.15, 12964.93, 431.03, 3156.74, 18939.77, 6385.09, 0.000, 0.000, 0.000, 18:41:33.199, 1560958893199
43, 12377.86, 12022.56, 10306.01, 12963.54, 424.10, 3145.18, 18911.05, 6369.80, 0.000, 0.000, 0.000, 18:41:33.199, 1560958893199
44, 12374.35, 12023.76, 10297.98, 12957.40, 419.65, 3136.20, 18906.56, 6363.14, 0.000, 0.000, 0.000, 18:41:33.199, 1560958893199
45, 12375.71, 12027.58, 10304.98, 12960.19, 425.62, 3139.55, 18928.26, 6374.69, 0.000, 0.000, 0.000, 18:41:33.199, 1560958893199
46, 12376.61, 12029.91, 10302.23, 12960.66, 426.90, 3140.17, 18939.28, 6385.45, 0.056, 0.062, -1.024, 18:41:33.200, 1560958893200
47, 12372.58, 12025.06, 10295.59, 12955.54, 421.64, 3135.84, 18926.41, 6383.26, 0.000, 0.000, 0.000, 18:41:33.200, 1560958893200
48, 12368.25, 12027.43, 10295.35, 12954.96, 417.22, 3127.21, 18905.33, 6376.93, 0.000, 0.000, 0.000, 18:41:33.200, 1560958893200
49, 12373.34, 12022.40, 10299.21, 12956.43, 415.30, 3121.51, 18894.46, 6373.31, 0.000, 0.000, 0.000, 18:41:33.200, 1560958893200
50, 12370.97, 12019.16, 10300.60, 12955.21, 418.36, 3125.35, 18915.45, 6384.98, 0.000, 0.000, 0.000, 18:41:33.200, 1560958893200
51, 12370.48, 12021.80, 10298.88, 12955.21, 424.10, 3132.66, 18932.35, 6399.33, 0.000, 0.000, 0.000, 18:41:33.200, 1560958893200
52, 12377.01, 12025.37, 10295.57, 12955.90, 426.00, 3133.80, 18923.30, 6399.89, 0.000, 0.000, 0.000, 18:41:33.200, 1560958893200
53, 12373.70, 12020.99, 10294.34, 12953.68, 419.54, 3123.63, 18901.69, 6385.18, 0.000, 0.000, 0.000, 18:41:33.201, 1560958893201
54, 12363.93, 12016.59, 10291.88, 12946.69, 413.17, 3109.82, 18893.68, 6373.67, 0.000, 0.000, 0.000, 18:41:33.201, 1560958893201
55, 12359.71, 12016.14, 10290.59, 12945.30, 412.03, 3105.51, 18912.10, 6379.50, 0.000, 0.000, 0.000, 18:41:33.201, 1560958893201
56, 12358.57, 12011.51, 10285.40, 12942.87, 411.92, 3104.86, 18929.04, 6383.84, 0.054, 0.066, -1.032, 18:41:33.201, 1560958893201
57, 12355.78, 12007.47, 10278.47, 12937.03, 406.18, 3097.75, 18915.86, 6373.13, 0.000, 0.000, 0.000, 18:41:33.201, 1560958893201
58, 12356.58, 12000.92, 10275.07, 12934.89, 398.69, 3089.19, 18892.45, 6353.44, 0.000, 0.000, 0.000, 18:41:33.201, 1560958893201
59, 12356.96, 12006.17, 10270.40, 12931.47, 397.88, 3083.18, 18892.50, 6342.78, 0.000, 0.000, 0.000, 18:41:33.201, 1560958893201
60, 12345.34, 12004.85, 10270.07, 12927.67, 402.49, 3082.33, 18912.28, 6344.79, 0.000, 0.000, 0.000, 18:41:33.201, 1560958893201
61, 12344.71, 12001.90, 10268.57, 12928.20, 407.58, 3083.51, 18928.78, 6351.40, 0.000, 0.000, 0.000, 18:41:33.201, 1560958893201
62, 12343.93, 12005.81, 10267.34, 12928.58, 409.46, 3077.48, 18914.80, 6341.19, 0.000, 0.000, 0.000, 18:41:33.202, 1560958893202
63, 12340.26, 11994.82, 10263.45, 12926.26, 405.91, 3067.02, 18883.54, 6324.45, 0.000, 0.000, 0.000, 18:41:33.202, 1560958893202
64, 12337.72, 11991.00, 10265.33, 12925.86, 408.05, 3065.77, 18887.34, 6317.81, 0.000, 0.000, 0.000, 18:41:33.202, 1560958893202
65, 12336.29, 11993.25, 10265.62, 12924.07, 410.18, 3066.77, 18916.44, 6322.39, 0.000, 0.000, 0.000, 18:41:33.202, 1560958893202
66, 12341.54, 12001.68, 10268.91, 12926.44, 411.72, 3070.32, 18930.41, 6327.73, 0.054, 0.064, -1.036, 18:41:33.202, 1560958893202
67, 12339.84, 12001.30, 10267.36, 12928.61, 410.31, 3070.73, 18917.09, 6322.44, 0.000, 0.000, 0.000, 18:41:33.202, 1560958893202
68, 12344.00, 12001.72, 10267.16, 12929.12, 404.16, 3064.71, 18888.70, 6306.63, 0.000, 0.000, 0.000, 18:41:33.202, 1560958893202
69, 12339.91, 11999.33, 10264.01, 12926.86, 397.55, 3058.48, 18876.00, 6297.54, 0.000, 0.000, 0.000, 18:41:33.202, 1560958893202
70, 12332.15, 11994.64, 10257.86, 12921.57, 397.26, 3055.95, 18904.35, 6300.26, 0.000, 0.000, 0.000, 18:41:33.202, 1560958893202
71, 12334.21, 11998.95, 10253.82, 12921.43, 400.99, 3060.49, 18923.30, 6309.18, 0.000, 0.000, 0.000, 18:41:33.203, 1560958893203
72, 12331.48, 11998.59, 10248.48, 12919.29, 398.67, 3056.74, 18905.69, 6304.04, 0.000, 0.000, 0.000, 18:41:33.203, 1560958893203
73, 12327.52, 11995.24, 10244.45, 12918.70, 393.46, 3044.06, 18883.22, 6288.10, 0.000, 0.000, 0.000, 18:41:33.203, 1560958893203
74, 12326.05, 11993.25, 10247.02, 12919.84, 388.81, 3037.83, 18875.27, 6275.45, 0.000, 0.000, 0.000, 18:41:33.203, 1560958893203
75, 12324.13, 11995.26, 10249.12, 12919.02, 392.07, 3041.20, 18890.93, 6280.46, 0.000, 0.000, 0.000, 18:41:33.203, 1560958893203
76, 12326.54, 11993.25, 10251.18, 12916.56, 395.94, 3045.67, 18906.58, 6288.80, 0.056, 0.068, -1.036, 18:41:33.203, 1560958893203
77, 12323.70, 11988.33, 10247.85, 12914.48, 394.87, 3041.76, 18893.62, 6286.07, 0.000, 0.000, 0.000, 18:41:33.203, 1560958893203
78, 12318.47, 11983.75, 10241.84, 12913.00, 386.39, 3029.76, 18864.18, 6271.41, 0.000, 0.000, 0.000, 18:41:33.203, 1560958893203
79, 12312.19, 11983.06, 10237.66, 12915.37, 379.76, 3021.75, 18851.10, 6264.48, 0.000, 0.000, 0.000, 18:41:33.203, 1560958893203
80, 12315.65, 11993.28, 10237.48, 12914.39, 382.39, 3023.92, 18865.95, 6272.48, 0.000, 0.000, 0.000, 18:41:33.203, 1560958893203
81, 12321.35, 11995.26, 10235.62, 12917.39, 387.78, 3030.67, 18894.94, 6285.78, 0.000, 0.000, 0.000, 18:41:33.204, 1560958893204
82, 12307.45, 11986.55, 10229.52, 12910.48, 382.51, 3022.72, 18886.57, 6282.20, 0.000, 0.000, 0.000, 18:41:33.204, 1560958893204
83, 12301.71, 11980.33, 10224.07, 12902.10, 374.06, 3007.96, 18856.85, 6264.86, 0.000, 0.000, 0.000, 18:41:33.204, 1560958893204
84, 12301.89, 11974.52, 10218.12, 12893.65, 368.69, 2999.22, 18846.48, 6255.49, 0.000, 0.000, 0.000, 18:41:33.204, 1560958893204
85, 12300.10, 11974.68, 10216.85, 12891.23, 373.27, 3000.30, 18862.84, 6257.95, 0.000, 0.000, 0.000, 18:41:33.204, 1560958893204
86, 12290.98, 11973.92, 10219.71, 12891.73, 378.53, 3004.39, 18876.94, 6266.11, 0.056, 0.066, -1.034, 18:41:33.204, 1560958893204
87, 12292.41, 11973.07, 10219.62, 12894.23, 377.86, 3003.05, 18863.08, 6264.66, 0.000, 0.000, 0.000, 18:41:33.204, 1560958893204
88, 12290.84, 11971.91, 10211.57, 12890.36, 371.55, 2991.98, 18844.44, 6249.21, 0.000, 0.000, 0.000, 18:41:33.204, 1560958893204
89, 12294.91, 11983.17, 10215.26, 12894.43, 370.79, 2991.24, 18837.56, 6242.04, 0.000, 0.000, 0.000, 18:41:33.205, 1560958893205
90, 12294.06, 11976.02, 10221.30, 12899.39, 370.73, 2993.12, 18856.49, 6245.66, 0.000, 0.000, 0.000, 18:41:33.205, 1560958893205
91, 12293.82, 11975.95, 10222.19, 12899.97, 373.21, 2996.92, 18876.56, 6250.62, 0.000, 0.000, 0.000, 18:41:33.205, 1560958893205
92, 12297.79, 11974.34, 10218.14, 12897.27, 368.71, 2994.11, 18860.67, 6245.37, 0.000, 0.000, 0.000, 18:41:33.205, 1560958893205
93, 12295.11, 11972.42, 10213.36, 12893.42, 362.66, 2986.66, 18841.92, 6235.09, 0.000, 0.000, 0.000, 18:41:33.205, 1560958893205
94, 12285.08, 11968.00, 10203.41, 12887.50, 356.22, 2977.77, 18839.77, 6221.14, 0.000, 0.000, 0.000, 18:41:33.205, 1560958893205
95, 12277.37, 11963.46, 10197.96, 12881.60, 354.63, 2973.23, 18849.02, 6221.90, 0.000, 0.000, 0.000, 18:41:33.205, 1560958893205
96, 12279.69, 11966.54, 10196.89, 12880.17, 356.67, 2973.81, 18864.00, 6229.01, 0.054, 0.070, -1.030, 18:41:33.205, 1560958893205
97, 12284.92, 11968.84, 10201.83, 12892.37, 361.72, 2978.08, 18860.74, 6232.05, 0.000, 0.000, 0.000, 18:41:33.206, 1560958893206
98, 12278.35, 11965.92, 10198.39, 12887.95, 355.10, 2964.04, 18841.27, 6214.43, 0.000, 0.000, 0.000, 18:41:33.206, 1560958893206
99, 12271.71, 11961.11, 10193.02, 12878.27, 346.32, 2952.26, 18824.15, 6200.31, 0.000, 0.000, 0.000, 18:41:33.206, 1560958893206
100, 12272.22, 11960.28, 10193.02, 12879.21, 346.38, 2951.84, 18846.28, 6207.68, 0.000, 0.000, 0.000, 18:41:33.206, 1560958893206
101, 12282.01, 11970.16, 10194.36, 12885.87, 353.31, 2957.94, 18871.33, 6220.98, 0.000, 0.000, 0.000, 18:41:33.206, 1560958893206
102, 12273.12, 11962.27, 10186.94, 12882.45, 355.08, 2956.67, 18873.07, 6224.09, 0.000, 0.000, 0.000, 18:41:33.207, 1560958893207
103, 12252.73, 11947.14, 10174.09, 12868.73, 345.11, 2941.18, 18843.19, 6208.55, 0.000, 0.000, 0.000, 18:41:33.207, 1560958893207
104, 12246.39, 11947.19, 10167.90, 12863.52, 340.93, 2930.16, 18835.70, 6199.01, 0.000, 0.000, 0.000, 18:41:33.207, 1560958893207
105, 12241.20, 11932.46, 10166.49, 12856.81, 342.00, 2924.66, 18851.93, 6202.70, 0.000, 0.000, 0.000, 18:41:33.208, 1560958893208
106, 12247.03, 11937.08, 10173.55, 12861.33, 347.17, 2931.70, 18869.59, 6216.87, 0.052, 0.070, -1.032, 18:41:33.208, 1560958893208
107, 12242.25, 11937.24, 10168.39, 12856.54, 342.45, 2925.37, 18857.67, 6209.83, 0.000, 0.000, 0.000, 18:41:33.208, 1560958893208
108, 12229.62, 11928.68, 10159.52, 12847.04, 334.85, 2912.63, 18829.96, 6197.71, 0.000, 0.000, 0.000, 18:41:33.208, 1560958893208
109, 12230.34, 11928.54, 10158.51, 12847.33, 330.20, 2904.97, 18819.12, 6190.49, 0.000, 0.000, 0.000, 18:41:33.208, 1560958893208
110, 12237.78, 11932.43, 10158.71, 12847.04, 332.64, 2906.75, 18833.22, 6199.66, 0.000, 0.000, 0.000, 18:41:33.208, 1560958893208
111, 12232.24, 11931.50, 10160.41, 12845.97, 332.19, 2906.53, 18842.81, 6207.37, 0.000, 0.000, 0.000, 18:41:33.208, 1560958893208
112, 12230.96, 11933.51, 10160.07, 12849.19, 330.83, 2904.48, 18834.96, 6204.75, 0.000, 0.000, 0.000, 18:41:33.208, 1560958893208
113, 12238.59, 11938.18, 10162.26, 12856.08, 333.22, 2907.29, 18817.49, 6201.25, 0.000, 0.000, 0.000, 18:41:33.208, 1560958893208
114, 12236.01, 11938.16, 10158.17, 12852.97, 332.75, 2904.97, 18814.94, 6199.03, 0.000, 0.000, 0.000, 18:41:33.208, 1560958893208
115, 12233.24, 11938.25, 10155.54, 12856.46, 334.07, 2905.41, 18826.52, 6205.45, 0.000, 0.000, 0.000, 18:41:33.208, 1560958893208
116, 12233.49, 11937.37, 10157.62, 12856.16, 340.60, 2910.96, 18849.09, 6216.15, 0.054, 0.074, -1.036, 18:41:33.208, 1560958893208
117, 12220.68, 11930.94, 10151.29, 12849.66, 338.61, 2905.08, 18848.96, 6215.93, 0.000, 0.000, 0.000, 18:41:33.209, 1560958893209
118, 12221.67, 11921.73, 10148.72, 12849.53, 333.22, 2895.09, 18814.65, 6203.30, 0.000, 0.000, 0.000, 18:41:33.209, 1560958893209
119, 12217.42, 11918.11, 10149.05, 12850.73, 328.75, 2887.93, 18802.20, 6199.21, 0.000, 0.000, 0.000, 18:41:33.209, 1560958893209
120, 12208.05, 11920.43, 10151.80, 12848.77, 328.44, 2888.58, 18819.97, 6203.64, 0.000, 0.000, 0.000, 18:41:33.640, 1560958893640
121, 12209.62, 11923.05, 10147.89, 12843.83, 328.30, 2888.52, 18836.87, 6211.62, 0.000, 0.000, 0.000, 18:41:33.640, 1560958893640
122, 12211.61, 11924.34, 10147.33, 12844.47, 328.70, 2885.86, 18829.51, 6210.30, 0.000, 0.000, 0.000, 18:41:33.640, 1560958893640
123, 12205.86, 11914.35, 10140.87, 12836.36, 319.25, 2874.48, 18800.90, 6195.19, 0.000, 0.000, 0.000, 18:41:33.640, 1560958893640
124, 12202.35, 11915.69, 10138.50, 12830.59, 314.69, 2867.77, 18790.87, 6190.45, 0.000, 0.000, 0.000, 18:41:33.640, 1560958893640
125, 12203.85, 11919.09, 10137.95, 12833.61, 318.36, 2872.94, 18816.61, 6203.06, 0.000, 0.000, 0.000, 18:41:33.640, 1560958893640
126, 12203.02, 11915.89, 10134.91, 12840.25, 323.23, 2880.20, 18839.93, 6217.74, 0.060, 0.074, -1.040, 18:41:33.640, 1560958893640
127, 12198.82, 11911.22, 10130.53, 12841.14, 319.38, 2878.99, 18821.73, 6213.70, 0.000, 0.000, 0.000, 18:41:33.640, 1560958893640
128, 12197.30, 11909.77, 10129.61, 12842.51, 315.49, 2871.89, 18791.58, 6203.57, 0.000, 0.000, 0.000, 18:41:33.641, 1560958893641
129, 12197.21, 11910.37, 10125.56, 12838.60, 309.95, 2860.33, 18779.33, 6191.63, 0.000, 0.000, 0.000, 18:41:33.641, 1560958893641
130, 12203.69, 11915.02, 10127.26, 12838.24, 312.75, 2862.99, 18807.74, 6201.25, 0.000, 0.000, 0.000, 18:41:33.641, 1560958893641
131, 12196.25, 11921.82, 10129.07, 12836.88, 316.46, 2868.49, 18828.51, 6213.63, 0.000, 0.000, 0.000, 18:41:33.641, 1560958893641
132, 12189.70, 11922.78, 10124.07, 12832.99, 312.68, 2862.01, 18815.01, 6207.24, 0.000, 0.000, 0.000, 18:41:33.641, 1560958893641
133, 12187.27, 11905.88, 10121.16, 12832.07, 306.73, 2850.72, 18784.54, 6191.05, 0.000, 0.000, 0.000, 18:41:33.642, 1560958893642
134, 12193.39, 11905.66, 10123.06, 12835.35, 304.97, 2844.37, 18773.36, 6185.35, 0.000, 0.000, 0.000, 18:41:33.642, 1560958893642
135, 12196.03, 11913.46, 10126.64, 12833.32, 308.12, 2845.09, 18792.14, 6193.33, 0.058, 0.070, -1.036, 18:41:33.647, 1560958893647
136, 12191.54, 11914.11, 10123.42, 12827.33, 308.19, 2841.93, 18809.93, 6200.53, 0.000, 0.000, 0.000, 18:41:33.648, 1560958893648
137, 12184.09, 11909.99, 10122.01, 12825.77, 305.50, 2838.45, 18797.55, 6195.77, 0.000, 0.000, 0.000, 18:41:33.648, 1560958893648
138, 12179.96, 11905.19, 10118.05, 12826.64, 299.98, 2832.82, 18775.73, 6189.31, 0.000, 0.000, 0.000, 18:41:33.648, 1560958893648
139, 12179.15, 11903.78, 10115.19, 12825.07, 296.03, 2830.47, 18769.27, 6190.14, 0.000, 0.000, 0.000, 18:41:33.648, 1560958893648
140, 12174.91, 11900.36, 10112.33, 12820.98, 293.50, 2831.76, 18786.13, 6195.46, 0.000, 0.000, 0.000, 18:41:33.648, 1560958893648
141, 12179.00, 11900.36, 10115.33, 12827.42, 298.75, 2838.14, 18809.46, 6208.26, 0.000, 0.000, 0.000, 18:41:33.649, 1560958893649
142, 12183.98, 11905.86, 10119.55, 12832.05, 301.55, 2838.85, 18806.87, 6210.28, 0.000, 0.000, 0.000, 18:41:33.649, 1560958893649
143, 12179.87, 11901.99, 10116.96, 12828.09, 294.91, 2825.77, 18771.96, 6192.42, 0.000, 0.000, 0.000, 18:41:33.649, 1560958893649
144, 12181.39, 11906.01, 10122.68, 12829.41, 296.65, 2822.60, 18759.66, 6187.50, 0.000, 0.000, 0.000, 18:41:33.649, 1560958893649
145, 12182.30, 11914.95, 10123.33, 12825.45, 297.35, 2822.60, 18776.27, 6194.34, 0.056, 0.066, -1.034, 18:41:33.649, 1560958893649
146, 12185.10, 11914.57, 10120.38, 12825.61, 303.92, 2828.12, 18803.16, 6209.27, 0.000, 0.000, 0.000, 18:41:33.649, 1560958893649
147, 12176.94, 11900.58, 10116.98, 12820.49, 300.50, 2819.09, 18785.59, 6205.25, 0.000, 0.000, 0.000, 18:41:33.649, 1560958893649
148, 12169.81, 11892.22, 10109.18, 12812.00, 290.77, 2808.21, 18758.54, 6191.23, 0.000, 0.000, 0.000, 18:41:33.649, 1560958893649
149, 12168.16, 11893.61, 10106.30, 12811.06, 284.16, 2804.09, 18749.51, 6186.36, 0.000, 0.000, 0.000, 18:41:33.649, 1560958893649
150, 12165.29, 11896.63, 10104.37, 12816.69, 284.47, 2802.95, 18765.59, 6193.80, 0.000, 0.000, 0.000, 18:41:33.651, 1560958893651
151, 12161.54, 11893.32, 10103.19, 12814.66, 284.90, 2800.20, 18781.25, 6201.96, 0.000, 0.000, 0.000, 18:41:33.651, 1560958893651
152, 12158.07, 11890.90, 10102.59, 12808.69, 283.73, 2791.64, 18776.76, 6201.96, 0.000, 0.000, 0.000, 18:41:33.651, 1560958893651
153, 12160.69, 11888.07, 10101.49, 12807.97, 282.82, 2787.58, 18757.20, 6194.79, 0.000, 0.000, 0.000, 18:41:33.651, 1560958893651
154, 12157.85, 11886.75, 10097.38, 12806.36, 280.45, 2780.47, 18742.07, 6185.15, 0.000, 0.000, 0.000, 18:41:33.651, 1560958893651
155, 12152.44, 11890.32, 10096.91, 12806.68, 282.03, 2781.34, 18757.49, 6191.23, 0.054, 0.070, -1.034, 18:41:33.652, 1560958893652
156, 12155.53, 11894.19, 10100.44, 12807.26, 286.88, 2786.68, 18777.32, 6202.97, 0.000, 0.000, 0.000, 18:41:33.652, 1560958893652
157, 12158.75, 11893.05, 10095.12, 12809.40, 287.29, 2786.30, 18782.82, 6204.46, 0.000, 0.000, 0.000, 18:41:33.652, 1560958893652
158, 12147.41, 11887.98, 10084.01, 12798.30, 275.62, 2770.92, 18746.05, 6186.76, 0.000, 0.000, 0.000, 18:41:33.652, 1560958893652
159, 12143.17, 11891.42, 10080.82, 12796.35, 269.87, 2761.00, 18732.97, 6176.06, 0.000, 0.000, 0.000, 18:41:33.652, 1560958893652
160, 12147.79, 11880.67, 10090.34, 12803.15, 274.90, 2767.88, 18753.69, 6193.29, 0.000, 0.000, 0.000, 18:41:33.652, 1560958893652
161, 12148.31, 11882.99, 10095.01, 12808.73, 278.01, 2773.74, 18770.64, 6204.98, 0.000, 0.000, 0.000, 18:41:33.652, 1560958893652
162, 12137.87, 11871.03, 10079.72, 12800.24, 267.17, 2761.09, 18753.61, 6198.12, 0.000, 0.000, 0.000, 18:41:33.652, 1560958893652
163, 12134.31, 11868.02, 10073.22, 12794.25, 258.18, 2748.46, 18725.53, 6181.02, 0.000, 0.000, 0.000, 18:41:33.652, 1560958893652
164, 12126.63, 11866.50, 10066.85, 12785.62, 251.46, 2738.22, 18710.76, 6170.74, 0.000, 0.000, 0.000, 18:41:33.652, 1560958893652
165, 12132.66, 11872.22, 10071.16, 12787.48, 256.75, 2743.32, 18732.33, 6184.82, 0.054, 0.068, -1.032, 18:41:33.652, 1560958893652
166, 12136.88, 11874.95, 10071.00, 12790.36, 259.15, 2746.25, 18752.35, 6191.84, 0.000, 0.000, 0.000, 18:41:33.652, 1560958893652
167, 12139.81, 11879.17, 10073.82, 12793.51, 261.16, 2748.26, 18745.42, 6191.12, 0.000, 0.000, 0.000, 18:41:33.653, 1560958893653
168, 12126.40, 11870.21, 10062.17, 12785.44, 251.43, 2733.46, 18715.41, 6172.95, 0.000, 0.000, 0.000, 18:41:33.653, 1560958893653
169, 12128.03, 11870.30, 10063.85, 12784.73, 251.08, 2729.55, 18704.54, 6166.11, 0.000, 0.000, 0.000, 18:41:33.654, 1560958893654
170, 12120.88, 11868.73, 10059.42, 12784.62, 253.11, 2732.03, 18725.53, 6174.47, 0.000, 0.000, 0.000, 18:41:33.654, 1560958893654
171, 12114.00, 11869.74, 10054.10, 12783.05, 252.37, 2730.51, 18737.82, 6178.89, 0.000, 0.000, 0.000, 18:41:33.654, 1560958893654
172, 12112.01, 11864.51, 10055.02, 12776.14, 248.75, 2724.10, 18729.96, 6175.18, 0.000, 0.000, 0.000, 18:41:33.654, 1560958893654
173, 12117.48, 11870.59, 10054.55, 12779.68, 246.52, 2721.68, 18708.77, 6170.65, 0.000, 0.000, 0.000, 18:41:33.654, 1560958893654
174, 12125.66, 11869.80, 10052.47, 12787.48, 247.05, 2719.58, 18700.72, 6162.44, 0.000, 0.000, 0.000, 18:41:33.654, 1560958893654
175, 12120.03, 11863.10, 10051.00, 12781.08, 244.80, 2715.36, 18721.80, 6168.03, 0.058, 0.066, -1.034, 18:41:33.654, 1560958893654
176, 12119.81, 11864.91, 10055.13, 12784.24, 249.29, 2722.71, 18745.27, 6179.61, 0.000, 0.000, 0.000, 18:41:33.654, 1560958893654
177, 12108.50, 11857.94, 10044.90, 12775.61, 241.31, 2710.17, 18723.90, 6165.80, 0.000, 0.000, 0.000, 18:41:33.654, 1560958893654
178, 12103.45, 11854.76, 10040.72, 12777.44, 238.16, 2703.31, 18702.67, 6153.35, 0.000, 0.000, 0.000, 18:41:33.654, 1560958893654
179, 12107.89, 11854.67, 10049.59, 12780.71, 244.93, 2704.74, 18703.20, 6156.72, 0.000, 0.000, 0.000, 18:41:33.654, 1560958893654
180, 12104.68, 11852.88, 10044.05, 12771.52, 245.18, 2700.83, 18717.28, 6158.31, 0.000, 0.000, 0.000, 18:41:33.656, 1560958893656
181, 12111.20, 11865.38, 10050.77, 12781.51, 256.02, 2714.53, 18744.87, 6176.35, 0.000, 0.000, 0.000, 18:41:33.656, 1560958893656
182, 12105.12, 11861.87, 10033.45, 12780.19, 244.71, 2706.59, 18728.55, 6172.05, 0.000, 0.000, 0.000, 18:41:33.656, 1560958893656
183, 12096.47, 11851.36, 10028.80, 12774.89, 237.67, 2694.10, 18699.04, 6160.32, 0.000, 0.000, 0.000, 18:41:33.656, 1560958893656
184, 12096.23, 11847.03, 10038.39, 12771.54, 233.80, 2678.88, 18682.06, 6148.52, 0.000, 0.000, 0.000, 18:41:33.656, 1560958893656
185, 12099.42, 11849.87, 10037.34, 12771.74, 235.43, 2681.23, 18694.95, 6152.68, 0.058, 0.066, -1.034, 18:41:33.656, 1560958893656
186, 12092.56, 11846.60, 10035.75, 12765.53, 240.66, 2683.57, 18721.35, 6171.47, 0.000, 0.000, 0.000, 18:41:33.656, 1560958893656
187, 12093.37, 11850.51, 10036.45, 12776.35, 248.22, 2693.54, 18731.34, 6185.51, 0.000, 0.000, 0.000, 18:41:33.657, 1560958893657
188, 12093.81, 11845.40, 10028.76, 12778.02, 239.66, 2685.25, 18696.85, 6165.95, 0.000, 0.000, 0.000, 18:41:33.658, 1560958893658
189, 12099.47, 11847.50, 10036.33, 12780.37, 241.58, 2688.83, 18685.83, 6159.38, 0.000, 0.000, 0.000, 18:41:33.658, 1560958893658
190, 12088.20, 11846.69, 10027.46, 12769.42, 234.27, 2680.96, 18686.26, 6157.93, 0.000, 0.000, 0.000, 18:41:33.658, 1560958893658
191, 12096.72, 11858.70, 10030.81, 12772.55, 242.61, 2688.71, 18716.99, 6176.37, 0.000, 0.000, 0.000, 18:41:33.658, 1560958893658
192, 12092.74, 11852.59, 10025.38, 12774.89, 242.38, 2686.63, 18721.33, 6184.53, 0.000, 0.000, 0.000, 18:41:33.658, 1560958893658
193, 12086.48, 11838.44, 10014.72, 12770.58, 231.90, 2673.00, 18697.08, 6168.37, 0.000, 0.000, 0.000, 18:41:33.658, 1560958893658
194, 12087.91, 11838.11, 10018.07, 12766.96, 232.93, 2667.19, 18675.51, 6152.88, 0.000, 0.000, 0.000, 18:41:33.658, 1560958893658
195, 12080.69, 11834.94, 10017.96, 12761.91, 233.11, 2662.18, 18687.98, 6160.14, 0.058, 0.070, -1.034, 18:41:33.658, 1560958893658
196, 12079.91, 11839.03, 10021.25, 12771.90, 237.87, 2673.07, 18718.67, 6181.89, 0.000, 0.000, 0.000, 18:41:33.658, 1560958893658
197, 12076.09, 11837.77, 10012.78, 12763.90, 235.57, 2664.80, 18706.76, 6179.65, 0.000, 0.000, 0.000, 18:41:33.658, 1560958893658
198, 12076.63, 11834.15, 10012.04, 12772.99, 233.02, 2660.75, 18693.41, 6166.96, 0.000, 0.000, 0.000, 18:41:33.659, 1560958893659
199, 12086.33, 11841.64, 10014.99, 12773.80, 231.09, 2659.10, 18684.05, 6155.22, 0.000, 0.000, 0.000, 18:41:33.659, 1560958893659
200, 12086.10, 11842.18, 10011.82, 12768.70, 229.49, 2658.99, 18693.08, 6156.18, 0.000, 0.000, 0.000, 18:41:33.659, 1560958893659
201, 12074.17, 11831.54, 10001.65, 12762.73, 228.14, 2651.21, 18699.54, 6156.74, 0.000, 0.000, 0.000, 18:41:33.659, 1560958893659
202, 12065.94, 11829.24, 10008.06, 12762.22, 230.56, 2654.27, 18698.64, 6156.43, 0.000, 0.000, 0.000, 18:41:33.659, 1560958893659
203, 12065.05, 11826.71, 10005.62, 12765.57, 227.07, 2658.61, 18687.98, 6162.55, 0.000, 0.000, 0.000, 18:41:33.659, 1560958893659
204, 12070.30, 11829.06, 10008.28, 12770.31, 226.56, 2653.51, 18681.23, 6158.29, 0.000, 0.000, 0.000, 18:41:33.659, 1560958893659
205, 12072.94, 11833.21, 10006.05, 12766.62, 224.93, 2652.15, 18694.71, 6164.68, 0.056, 0.070, -1.032, 18:41:33.659, 1560958893659
206, 12064.33, 11829.28, 10001.42, 12765.68, 227.16, 2653.87, 18713.77, 6168.79, 0.000, 0.000, 0.000, 18:41:33.659, 1560958893659
207, 12062.66, 11818.46, 9991.41, 12757.57, 217.06, 2641.44, 18696.12, 6152.47, 0.000, 0.000, 0.000, 18:41:33.660, 1560958893660
208, 12061.60, 11816.50, 9979.81, 12757.24, 205.97, 2632.32, 18671.44, 6134.17, 0.000, 0.000, 0.000, 18:41:33.660, 1560958893660
209, 12049.53, 11809.50, 9973.04, 12742.42, 202.75, 2619.85, 18656.73, 6125.85, 0.000, 0.000, 0.000, 18:41:33.660, 1560958893660
210, 12057.67, 11816.76, 9995.19, 12754.35, 219.85, 2632.66, 18683.02, 6142.37, 0.000, 0.000, 0.000, 18:41:33.660, 1560958893660
211, 12058.01, 11816.99, 10001.94, 12759.00, 226.45, 2640.48, 18701.48, 6152.92, 0.000, 0.000, 0.000, 18:41:33.661, 1560958893661
212, 12053.87, 11819.07, 9997.62, 12760.95, 216.74, 2636.14, 18689.25, 6146.60, 0.000, 0.000, 0.000, 18:41:33.662, 1560958893662
213, 12058.34, 11824.74, 10006.79, 12762.17, 225.73, 2630.04, 18663.33, 6137.41, 0.000, 0.000, 0.000, 18:41:33.662, 1560958893662
214, 12057.04, 11817.86, 9998.85, 12758.69, 221.46, 2628.36, 18662.19, 6130.17, 0.000, 0.000, 0.000, 18:41:33.662, 1560958893662
215, 12048.39, 11807.87, 9986.20, 12750.73, 213.39, 2623.40, 18681.23, 6125.32, 0.056, 0.070, -1.040, 18:41:33.662, 1560958893662
216, 12047.28, 11812.81, 9986.29, 12755.76, 215.43, 2624.63, 18688.58, 6130.86, 0.000, 0.000, 0.000, 18:41:33.663, 1560958893663
217, 12048.37, 11816.38, 9988.84, 12758.93, 219.96, 2622.71, 18681.28, 6121.00, 0.000, 0.000, 0.000, 18:41:33.663, 1560958893663
218, 12028.23, 11796.51, 9964.99, 12739.40, 200.81, 2600.96, 18653.78, 6102.96, 0.000, 0.000, 0.000, 18:41:33.663, 1560958893663
219, 12038.67, 11803.24, 9969.06, 12744.94, 201.75, 2600.31, 18654.34, 6117.69, 0.000, 0.000, 0.000, 18:41:33.663, 1560958893663
220, 12037.60, 11803.24, 9965.95, 12743.98, 197.10, 2600.92, 18659.32, 6103.46, 0.000, 0.000, 0.000, 18:41:33.663, 1560958893663
221, 12032.88, 11804.18, 9966.44, 12747.38, 207.22, 2611.51, 18706.24, 6144.07, 0.000, 0.000, 0.000, 18:41:33.664, 1560958893664
222, 12035.48, 11800.29, 9966.02, 12749.50, 209.95, 2617.52, 18718.60, 6163.43, 0.000, 0.000, 0.000, 18:41:33.665, 1560958893665
223, 12032.28, 11793.52, 9967.40, 12743.98, 203.87, 2611.29, 18674.30, 6132.67, 0.000, 0.000, 0.000, 18:41:33.665, 1560958893665
224, 12023.05, 11785.27, 9956.09, 12736.20, 192.09, 2594.99, 18651.50, 6116.42, 0.000, 0.000, 0.000, 18:41:33.665, 1560958893665
225, 12012.18, 11785.38, 9950.21, 12733.50, 193.32, 2588.47, 18675.26, 6122.32, 0.054, 0.070, -1.036, 18:41:33.665, 1560958893665
226, 12007.60, 11789.18, 9942.08, 12730.15, 189.86, 2586.05, 18688.05, 6127.48, 0.000, 0.000, 0.000, 18:41:33.666, 1560958893666
227, 12016.99, 11787.84, 9954.42, 12733.41, 194.12, 2586.41, 18683.31, 6118.90, 0.000, 0.000, 0.000, 18:41:33.666, 1560958893666
228, 12014.80, 11771.95, 9949.70, 12723.15, 183.44, 2573.20, 18647.12, 6098.92, 0.000, 0.000, 0.000, 18:41:33.666, 1560958893666
229, 12009.50, 11772.22, 9938.17, 12728.29, 173.32, 2566.96, 18628.97, 6087.92, 0.000, 0.000, 0.000, 18:41:33.666, 1560958893666
230, 12002.64, 11769.83, 9935.84, 12721.45, 177.47, 2564.04, 18652.75, 6105.18, 0.000, 0.000, 0.000, 18:41:33.666, 1560958893666
231, 12008.65, 11775.88, 9936.24, 12730.30, 187.17, 2577.67, 18679.29, 6137.16, 0.000, 0.000, 0.000, 18:41:33.667, 1560958893667
232, 12001.12, 11768.44, 9930.08, 12722.48, 178.05, 2565.51, 18655.84, 6113.43, 0.000, 0.000, 0.000, 18:41:33.668, 1560958893668
233, 11995.17, 11765.80, 9926.95, 12715.04, 168.71, 2548.46, 18584.51, 6068.57, 0.000, 0.000, 0.000, 18:41:33.668, 1560958893668
234, 11997.03, 11764.08, 9925.11, 12709.63, 165.83, 2538.22, 18593.28, 6054.66, 0.000, 0.000, 0.000, 18:41:33.668, 1560958893668
235, 11986.41, 11755.68, 9922.23, 12705.20, 168.89, 2538.38, 18660.20, 6097.38, 0.058, 0.070, -1.040, 18:41:33.668, 1560958893668
236, 11974.48, 11752.73, 9917.83, 12703.57, 168.55, 2539.78, 18658.10, 6099.19, 0.000, 0.000, 0.000, 18:41:33.668, 1560958893668
237, 11976.24, 11753.35, 9909.00, 12696.55, 160.24, 2532.34, 18627.14, 6078.00, 0.000, 0.000, 0.000, 18:41:33.668, 1560958893668
238, 11980.76, 11756.06, 9913.31, 12700.33, 164.51, 2531.38, 18615.56, 6073.08, 0.000, 0.000, 0.000, 18:41:33.669, 1560958893669
239, 11976.65, 11756.62, 9917.74, 12704.69, 165.43, 2524.94, 18594.51, 6060.09, 0.000, 0.000, 0.000, 18:41:33.669, 1560958893669
240, 11994.01, 11774.63, 9937.03, 12727.24, 187.53, 2543.43, 18647.23, 6093.11, 0.000, 0.000, 0.000, 18:41:34.092, 1560958894092
241, 11986.08, 11766.23, 9921.45, 12713.29, 173.47, 2533.32, 18645.58, 6080.97, 0.000, 0.000, 0.000, 18:41:34.092, 1560958894092
242, 11986.84, 11767.79, 9919.86, 12706.99, 173.63, 2528.74, 18629.51, 6068.07, 0.000, 0.000, 0.000, 18:41:34.092, 1560958894092
243, 11989.72, 11769.47, 9924.93, 12716.51, 181.16, 2536.25, 18620.97, 6086.96, 0.000, 0.000, 0.000, 18:41:34.092, 1560958894092
244, 11985.14, 11770.05, 9920.73, 12712.58, 173.54, 2526.04, 18609.53, 6069.26, 0.060, 0.070, -1.040, 18:41:34.093, 1560958894093
245, 11990.39, 11775.30, 9926.66, 12716.04, 176.42, 2529.75, 18627.23, 6060.07, 0.000, 0.000, 0.000, 18:41:34.093, 1560958894093
246, 11995.93, 11781.34, 9930.19, 12722.19, 179.28, 2533.55, 18626.76, 6051.89, 0.000, 0.000, 0.000, 18:41:34.093, 1560958894093
247, 11996.02, 11779.97, 9922.48, 12721.41, 171.88, 2531.16, 18613.73, 6061.19, 0.000, 0.000, 0.000, 18:41:34.093, 1560958894093
248, 11993.03, 11777.80, 9921.69, 12719.77, 172.91, 2525.68, 18622.38, 6075.61, 0.000, 0.000, 0.000, 18:41:34.093, 1560958894093
249, 11986.77, 11778.32, 9917.11, 12718.41, 172.06, 2520.92, 18630.09, 6064.41, 0.000, 0.000, 0.000, 18:41:34.093, 1560958894093
250, 11994.46, 11776.46, 9919.44, 12718.57, 169.49, 2516.61, 18620.25, 6052.41, 0.000, 0.000, 0.000, 18:41:34.093, 1560958894093
251, 11995.58, 11776.64, 9927.50, 12725.88, 179.80, 2529.70, 18647.12, 6085.62, 0.000, 0.000, 0.000, 18:41:34.093, 1560958894093
252, 11992.78, 11773.98, 9921.96, 12724.24, 178.12, 2526.06, 18637.58, 6075.49, 0.000, 0.000, 0.000, 18:41:34.093, 1560958894093
253, 11982.32, 11766.94, 9911.86, 12710.05, 167.10, 2505.47, 18613.04, 6046.21, 0.000, 0.000, 0.000, 18:41:34.094, 1560958894094
254, 11977.92, 11762.02, 9903.23, 12705.98, 159.70, 2496.11, 18595.55, 6021.47, 0.058, 0.076, -1.042, 18:41:34.094, 1560958894094
255, 11983.40, 11766.79, 9908.55, 12712.20, 171.50, 2509.39, 18642.61, 6058.86, 0.000, 0.000, 0.000, 18:41:34.094, 1560958894094
0, 11990.19, 11773.76, 9915.93, 12717.99, 180.89, 2523.36, 18668.94, 6091.95, 0.000, 0.000, 0.000, 18:41:34.095, 1560958894095
1, 11988.27, 11771.90, 9914.85, 12717.90, 181.29, 2524.03, 18649.65, 6073.17, 0.000, 0.000, 0.000, 18:41:34.095, 1560958894095
2, 11982.14, 11762.14, 9903.14, 12713.94, 174.81, 2513.88, 18627.09, 6058.08, 0.000, 0.000, 0.000, 18:41:34.096, 1560958894096
3, 11973.96, 11762.58, 9896.84, 12705.65, 164.80, 2494.88, 18584.11, 6031.69, 0.000, 0.000, 0.000, 18:41:34.096, 1560958894096
4, 11978.92, 11766.85, 9901.06, 12707.84, 168.26, 2495.91, 18601.66, 6034.61, 0.000, 0.000, 0.000, 18:41:34.096, 1560958894096
5, 11978.46, 11767.97, 9904.82, 12707.55, 174.92, 2502.90, 18651.95, 6054.15, 0.000, 0.000, 0.000, 18:41:34.096, 1560958894096
6, 11987.49, 11779.44, 9909.29, 12717.00, 177.58, 2509.18, 18660.73, 6059.07, 0.000, 0.000, 0.000, 18:41:34.097, 1560958894097
7, 11977.94, 11769.62, 9897.78, 12709.34, 164.62, 2496.47, 18611.98, 6024.67, 0.000, 0.000, 0.000, 18:41:34.097, 1560958894097
8, 11964.53, 11755.99, 9880.45, 12692.57, 144.24, 2474.72, 18554.56, 5984.39, 0.054, 0.078, -1.038, 18:41:34.097, 1560958894097
9, 11970.01, 11760.44, 9883.81, 12699.84, 153.74, 2484.28, 18612.81, 6027.44, 0.000, 0.000, 0.000, 18:41:34.097, 1560958894097
10, 11977.23, 11772.53, 9887.61, 12710.12, 165.25, 2498.37, 18669.25, 6068.81, 0.000, 0.000, 0.000, 18:41:34.097, 1560958894097
11, 11988.36, 11781.29, 9894.25, 12724.20, 175.17, 2509.83, 18668.27, 6079.36, 0.000, 0.000, 0.000, 18:41:34.098, 1560958894098
12, 11962.18, 11760.59, 9872.05, 12700.24, 151.08, 2479.43, 18598.57, 6031.04, 0.000, 0.000, 0.000, 18:41:34.098, 1560958894098
13, 11947.81, 11738.64, 9858.79, 12686.02, 136.82, 2459.21, 18572.91, 6018.39, 0.000, 0.000, 0.000, 18:41:34.098, 1560958894098
14, 11944.08, 11735.40, 9858.84, 12687.48, 137.66, 2458.74, 18576.67, 6017.36, 0.000, 0.000, 0.000, 18:41:34.098, 1560958894098
15, 11950.20, 11745.19, 9868.32, 12700.53, 150.72, 2475.34, 18619.92, 6046.17, 0.000, 0.000, 0.000, 18:41:34.098, 1560958894098
16, 11954.03, 11754.29, 9874.17, 12707.01, 159.17, 2483.08, 18643.01, 6074.73, 0.000, 0.000, 0.000, 18:41:34.098, 1560958894098
17, 11930.67, 11729.37, 9851.84, 12687.52, 141.84, 2460.82, 18583.78, 6046.95, 0.000, 0.000, 0.000, 18:41:34.099, 1560958894099
18, 11920.16, 11718.17, 9844.24, 12681.35, 138.89, 2452.61, 18574.21, 6056.00, 0.058, 0.078, -1.032, 18:41:34.099, 1560958894099
19, 11911.45, 11711.40, 9845.27, 12684.41, 144.41, 2456.23, 18603.36, 6072.48, 0.000, 0.000, 0.000, 18:41:34.099, 1560958894099
20, 11910.22, 11714.97, 9848.74, 12684.19, 144.08, 2450.71, 18602.60, 6048.52, 0.000, 0.000, 0.000, 18:41:34.099, 1560958894099
21, 11910.62, 11717.97, 9849.65, 12686.38, 147.25, 2449.13, 18588.18, 6036.60, 0.000, 0.000, 0.000, 18:41:34.099, 1560958894099
22, 11911.85, 11715.85, 9848.27, 12688.73, 148.17, 2451.96, 18589.86, 6063.94, 0.000, 0.000, 0.000, 18:41:34.100, 1560958894100
23, 11912.09, 11716.07, 9850.88, 12686.92, 146.20, 2445.97, 18590.88, 6067.74, 0.000, 0.000, 0.000, 18:41:34.100, 1560958894100
24, 11897.18, 11699.33, 9845.74, 12679.23, 142.05, 2442.91, 18586.44, 6057.57, 0.000, 0.000, 0.000, 18:41:34.101, 1560958894101
25, 11893.16, 11699.86, 9841.32, 12675.70, 137.20, 2436.74, 18559.61, 6021.16, 0.000, 0.000, 0.000, 18:41:34.101, 1560958894101
26, 11873.20, 11680.95, 9829.56, 12664.48, 132.68, 2425.34, 18587.29, 6029.99, 0.000, 0.000, 0.000, 18:41:34.101, 1560958894101
27, 11862.03, 11673.20, 9829.25, 12663.18, 132.72, 2423.62, 18606.51, 6077.55, 0.000, 0.000, 0.000, 18:41:34.101, 1560958894101
28, 11850.07, 11660.64, 9822.52, 12655.02, 124.23, 2410.48, 18586.79, 6052.94, 0.058, 0.076, -1.034, 18:41:34.101, 1560958894101
29, 11854.43, 11659.92, 9824.06, 12662.31, 124.07, 2417.21, 18575.26, 6045.81, 0.000, 0.000, 0.000, 18:41:34.101, 1560958894101
30, 11863.75, 11672.04, 9832.69, 12673.82, 137.02, 2432.05, 18610.06, 6073.42, 0.000, 0.000, 0.000, 18:41:34.101, 1560958894101
31, 11842.71, 11652.99, 9823.28, 12662.53, 134.09, 2417.36, 18594.84, 6034.50, 0.000, 0.000, 0.000, 18:41:34.101, 1560958894101
32, 11814.75, 11633.12, 9804.91, 12636.18, 117.01, 2388.19, 18560.42, 6026.01, 0.000, 0.000, 0.000, 18:41:34.101, 1560958894101
33, 11804.83, 11623.26, 9797.64, 12626.83, 114.64, 2383.99, 18570.74, 6056.67, 0.000, 0.000, 0.000, 18:41:34.101, 1560958894101
34, 11803.46, 11619.62, 9792.14, 12632.07, 111.38, 2382.63, 18551.75, 6025.61, 0.000, 0.000, 0.000, 18:41:34.101, 1560958894101
35, 11803.31, 11618.35, 9789.46, 12635.62, 115.18, 2385.76, 18548.01, 6005.06, 0.000, 0.000, 0.000, 18:41:34.101, 1560958894101
36, 11791.30, 11609.65, 9786.64, 12637.68, 124.45, 2398.39, 18586.68, 6054.89, 0.000, 0.000, 0.000, 18:41:34.101, 1560958894101
37, 11767.66, 11583.32, 9767.51, 12622.12, 107.09, 2378.99, 18551.97, 6017.94, 0.000, 0.000, 0.000, 18:41:34.101, 1560958894101
38, 11760.01, 11569.75, 9767.02, 12618.07, 102.84, 2369.46, 18569.61, 6020.87, 0.050, 0.064, -1.032, 18:41:34.101, 1560958894101
39, 11769.22, 11581.11, 9775.29, 12628.00, 110.64, 2382.11, 18606.02, 6045.32, 0.000, 0.000, 0.000, 18:41:34.102, 1560958894102
40, 11759.92, 11574.83, 9769.39, 12623.57, 107.69, 2381.80, 18602.26, 6037.56, 0.000, 0.000, 0.000, 18:41:34.102, 1560958894102
41, 11737.10, 11558.67, 9757.68, 12611.14, 94.68, 2368.82, 18543.74, 5986.67, 0.000, 0.000, 0.000, 18:41:34.103, 1560958894103
42, 11723.06, 11546.08, 9751.24, 12606.36, 93.97, 2366.56, 18527.43, 6000.30, 0.000, 0.000, 0.000, 18:41:34.103, 1560958894103
43, 11721.95, 11538.06, 9751.33, 12606.16, 98.66, 2363.74, 18591.06, 6026.43, 0.000, 0.000, 0.000, 18:41:34.103, 1560958894103
44, 11728.32, 11539.38, 9754.77, 12610.09, 102.42, 2365.33, 18581.65, 6006.16, 0.000, 0.000, 0.000, 18:41:34.103, 1560958894103
45, 11717.63, 11527.22, 9746.23, 12606.65, 106.35, 2368.64, 18619.47, 6037.72, 0.000, 0.000, 0.000, 18:41:34.103, 1560958894103
46, 11712.51, 11526.08, 9745.79, 12606.63, 108.50, 2371.07, 18595.73, 6036.89, 0.000, 0.000, 0.000, 18:41:34.104, 1560958894104
47, 11706.39, 11520.33, 9740.84, 12600.80, 97.48, 2356.59, 18530.60, 5993.75, 0.000, 0.000, 0.000, 18:41:34.104, 1560958894104
48, 11702.39, 11519.06, 9745.20, 12599.14, 103.33, 2351.92, 18544.53, 6007.50, 0.056, 0.066, -1.030, 18:41:34.104, 1560958894104
49, 11684.80, 11502.56, 9736.71, 12590.80, 101.01, 2348.74, 18571.08, 6018.88, 0.000, 0.000, 0.000, 18:41:34.105, 1560958894105
50, 11664.91, 11488.33, 9716.71, 12572.48, 81.45, 2330.15, 18527.20, 5993.80, 0.000, 0.000, 0.000, 18:41:34.105, 1560958894105
51, 11671.66, 11485.60, 9714.83, 12579.74, 86.10, 2332.02, 18546.65, 5999.68, 0.000, 0.000, 0.000, 18:41:34.105, 1560958894105
52, 11668.46, 11478.13, 9717.00, 12584.99, 87.75, 2334.28, 18542.76, 6014.34, 0.000, 0.000, 0.000, 18:41:34.106, 1560958894106
53, 11681.07, 11496.73, 9723.41, 12589.78, 90.03, 2329.74, 18542.89, 6013.36, 0.000, 0.000, 0.000, 18:41:34.106, 1560958894106
54, 11662.67, 11485.64, 9715.32, 12573.84, 82.72, 2314.34, 18542.74, 5995.61, 0.000, 0.000, 0.000, 18:41:34.106, 1560958894106
55, 11647.43, 11470.67, 9706.71, 12570.58, 86.10, 2324.16, 18583.62, 6043.84, 0.000, 0.000, 0.000, 18:41:34.106, 1560958894106
56, 11651.52, 11464.17, 9705.37, 12577.28, 88.13, 2331.89, 18590.84, 6059.85, 0.000, 0.000, 0.000, 18:41:34.106, 1560958894106
57, 11639.25, 11448.07, 9698.02, 12571.02, 68.62, 2316.42, 18496.65, 5995.10, 0.000, 0.000, 0.000, 18:41:34.106, 1560958894106
58, 11636.16, 11449.88, 9700.10, 12568.47, 65.29, 2306.70, 18483.57, 5970.91, 0.050, 0.070, -1.028, 18:41:34.106, 1560958894106
59, 11623.42, 11443.74, 9701.24, 12566.80, 77.14, 2318.28, 18574.95, 6066.69, 0.000, 0.000, 0.000, 18:41:34.106, 1560958894106
60, 11614.84, 11437.43, 9699.14, 12563.18, 80.87, 2319.93, 18601.23, 6082.31, 0.000, 0.000, 0.000, 18:41:34.107, 1560958894107
61, 11614.32, 11437.88, 9697.84, 12566.17, 79.21, 2319.42, 18559.48, 6050.08, 0.000, 0.000, 0.000, 18:41:34.107, 1560958894107
62, 11588.08, 11420.38, 9674.77, 12541.61, 54.16, 2289.33, 18488.33, 5982.09, 0.000, 0.000, 0.000, 18:41:34.108, 1560958894108
63, 11592.58, 11424.80, 9675.29, 12546.48, 55.28, 2287.14, 18490.57, 5999.07, 0.000, 0.000, 0.000, 18:41:34.108, 1560958894108
64, 11591.35, 11413.76, 9676.76, 12551.84, 64.28, 2299.17, 18544.57, 6060.88, 0.000, 0.000, 0.000, 18:41:34.108, 1560958894108
65, 11601.00, 11416.67, 9679.29, 12560.61, 64.28, 2305.45, 18532.05, 6054.24, 0.000, 0.000, 0.000, 18:41:34.108, 1560958894108
66, 11572.86, 11404.33, 9653.52, 12533.16, 54.72, 2279.41, 18547.72, 6023.82, 0.000, 0.000, 0.000, 18:41:34.108, 1560958894108
67, 11554.02, 11403.84, 9645.56, 12521.20, 50.38, 2266.85, 18520.83, 6002.14, 0.000, 0.000, 0.000, 18:41:34.108, 1560958894108
68, 11531.76, 11373.39, 9631.84, 12503.81, 23.65, 2240.49, 18415.54, 5955.26, 0.048, 0.068, -1.032, 18:41:34.109, 1560958894109
69, 11549.77, 11380.77, 9648.29, 12521.51, 41.71, 2261.64, 18483.06, 6009.06, 0.000, 0.000, 0.000, 18:41:34.109, 1560958894109
70, 11549.28, 11366.62, 9657.79, 12530.86, 65.24, 2280.21, 18591.85, 6050.24, 0.000, 0.000, 0.000, 18:41:34.110, 1560958894110
71, 11557.95, 11386.49, 9651.08, 12536.00, 62.05, 2284.64, 18555.43, 6059.54, 0.000, 0.000, 0.000, 18:41:34.111, 1560958894111
72, 11522.66, 11353.97, 9627.25, 12510.03, 32.37, 2249.66, 18463.39, 5971.89, 0.000, 0.000, 0.000, 18:41:34.112, 1560958894112
73, 11495.90, 11328.87, 9618.00, 12489.91, 28.74, 2232.78, 18490.84, 5973.70, 0.000, 0.000, 0.000, 18:41:34.112, 1560958894112
74, 11512.24, 11347.51, 9626.52, 12498.11, 36.17, 2239.62, 18521.13, 5997.67, 0.000, 0.000, 0.000, 18:41:34.112, 1560958894112
75, 11537.59, 11364.61, 9644.46, 12526.90, 57.04, 2271.43, 18551.90, 6052.41, 0.000, 0.000, 0.000, 18:41:34.112, 1560958894112
76, 11545.30, 11367.87, 9648.80, 12538.14, 63.52, 2282.49, 18535.99, 6041.56, 0.000, 0.000, 0.000, 18:41:34.113, 1560958894113
77, 11499.12, 11335.15, 9606.31, 12491.25, 24.92, 2231.06, 18491.11, 5986.80, 0.000, 0.000, 0.000, 18:41:34.113, 1560958894113
78, 11485.98, 11325.63, 9603.34, 12479.27, 23.07, 2220.33, 18510.96, 6001.13, 0.048, 0.064, -1.032, 18:41:34.113, 1560958894113
79, 11481.76, 11321.69, 9598.26, 12484.34, 20.32, 2218.66, 18514.87, 5992.19, 0.000, 0.000, 0.000, 18:41:34.113, 1560958894113
80, 11504.22, 11346.15, 9612.55, 12493.53, 24.36, 2227.75, 18502.21, 5996.68, 0.000, 0.000, 0.000, 18:41:34.113, 1560958894113
81, 11517.50, 11353.52, 9619.61, 12506.05, 38.40, 2242.98, 18543.30, 6019.68, 0.000, 0.000, 0.000, 18:41:34.113, 1560958894113
82, 11507.64, 11344.47, 9601.82, 12493.13, 23.83, 2224.67, 18526.91, 5999.32, 0.000, 0.000, 0.000, 18:41:34.113, 1560958894113
83, 11510.01, 11352.85, 9603.87, 12486.82, 13.77, 2212.47, 18469.98, 5966.37, 0.000, 0.000, 0.000, 18:41:34.114, 1560958894114
84, 11533.12, 11385.55, 9628.30, 12510.29, 35.03, 2230.77, 18505.41, 5975.54, 0.000, 0.000, 0.000, 18:41:34.114, 1560958894114
85, 11524.69, 11375.05, 9617.93, 12506.40, 31.83, 2230.28, 18522.17, 5994.00, 0.000, 0.000, 0.000, 18:41:34.114, 1560958894114
86, 11518.59, 11363.25, 9600.77, 12492.55, 12.61, 2210.39, 18463.88, 5952.14, 0.000, 0.000, 0.000, 18:41:34.114, 1560958894114
87, 11542.91, 11390.31, 9613.87, 12511.05, 22.40, 2218.50, 18478.59, 5976.16, 0.000, 0.000, 0.000, 18:41:34.114, 1560958894114
88, 11553.48, 11406.18, 9624.84, 12521.71, 32.99, 2223.82, 18500.96, 5994.11, 0.056, 0.068, -1.032, 18:41:34.114, 1560958894114
89, 11560.52, 11414.83, 9629.76, 12524.78, 37.69, 2226.66, 18494.39, 5970.69, 0.000, 0.000, 0.000, 18:41:34.114, 1560958894114
90, 11550.96, 11415.48, 9622.18, 12514.81, 37.98, 2227.60, 18522.80, 6009.13, 0.000, 0.000, 0.000, 18:41:34.114, 1560958894114
91, 11547.04, 11421.18, 9612.75, 12500.08, 22.84, 2212.82, 18482.68, 5993.26, 0.000, 0.000, 0.000, 18:41:34.114, 1560958894114
92, 11568.35, 11423.40, 9625.02, 12511.79, 32.16, 2216.35, 18486.75, 5988.48, 0.000, 0.000, 0.000, 18:41:34.114, 1560958894114
93, 11563.09, 11414.54, 9621.78, 12506.00, 28.59, 2205.07, 18471.53, 5967.69, 0.000, 0.000, 0.000, 18:41:34.115, 1560958894115
94, 11576.84, 11429.52, 9620.93, 12506.36, 23.92, 2201.74, 18467.93, 5976.90, 0.000, 0.000, 0.000, 18:41:34.115, 1560958894115
95, 11591.66, 11446.06, 9620.10, 12505.44, 17.64, 2194.81, 18464.53, 5965.21, 0.000, 0.000, 0.000, 18:41:34.115, 1560958894115
96, 11596.71, 11456.70, 9625.40, 12509.06, 29.86, 2204.42, 18520.63, 6005.27, 0.000, 0.000, 0.000, 18:41:34.115, 1560958894115
97, 11608.04, 11465.64, 9636.49, 12524.06, 41.86, 2220.89, 18542.09, 6034.37, 0.000, 0.000, 0.000, 18:41:34.115, 1560958894115
98, 11616.38, 11483.21, 9639.73, 12528.60, 33.44, 2209.89, 18486.39, 5995.10, 0.054, 0.070, -1.036, 18:41:34.115, 1560958894115
99, 11613.83, 11491.84, 9638.63, 12518.52, 25.10, 2194.00, 18464.46, 5969.37, 0.000, 0.000, 0.000, 18:41:34.116, 1560958894116
100, 11606.43, 11485.51, 9632.77, 12508.88, 21.99, 2191.12, 18462.23, 5966.42, 0.000, 0.000, 0.000, 18:41:34.116, 1560958894116
101, 11609.67, 11496.02, 9634.16, 12514.38, 26.91, 2198.41, 18472.17, 5979.29, 0.000, 0.000, 0.000, 18:41:34.116, 1560958894116
102, 11652.84, 11526.55, 9660.22, 12551.06, 49.87, 2223.13, 18488.20, 5994.76, 0.000, 0.000, 0.000, 18:41:34.116, 1560958894116
103, 11635.74, 11524.25, 9633.45, 12524.84, 35.27, 2194.63, 18479.82, 6003.83, 0.000, 0.000, 0.000, 18:41:34.116, 1560958894116
104, 11621.59, 11508.60, 9615.92, 12508.06, 22.49, 2180.70, 18485.81, 5998.25, 0.000, 0.000, 0.000, 18:41:34.570, 1560958894570
105, 11629.10, 11498.88, 9633.42, 12516.53, 32.66, 2187.21, 18472.02, 5980.16, 0.000, 0.000, 0.000, 18:41:34.571, 1560958894571
106, 11627.98, 11510.75, 9626.67, 12508.33, 28.90, 2181.60, 18443.03, 5974.82, 0.000, 0.000, 0.000, 18:41:34.571, 1560958894571
107, 11614.50, 11498.05, 9615.63, 12496.99, 19.96, 2169.66, 18443.14, 5982.35, 0.050, 0.066, -1.040, 18:41:34.571, 1560958894571
108, 11641.86, 11517.16, 9631.86, 12518.83, 31.16, 2175.56, 18480.11, 5968.94, 0.000, 0.000, 0.000, 18:41:34.572, 1560958894572
109, 11669.08, 11551.78, 9647.10, 12533.85, 39.25, 2188.59, 18482.57, 5998.78, 0.000, 0.000, 0.000, 18:41:34.572, 1560958894572
110, 11649.19, 11542.44, 9635.90, 12522.88, 39.14, 2184.73, 18521.01, 6035.37, 0.000, 0.000, 0.000, 18:41:34.572, 1560958894572
111, 11623.82, 11521.14, 9610.60, 12497.17, 16.99, 2157.90, 18498.17, 5992.30, 0.000, 0.000, 0.000, 18:41:34.572, 1560958894572
112, 11644.66, 11527.15, 9625.91, 12508.77, 15.13, 2157.37, 18426.80, 5941.32, 0.000, 0.000, 0.000, 18:41:34.573, 1560958894573
113, 11675.61, 11559.23, 9651.62, 12534.59, 35.09, 2174.67, 18448.53, 5951.29, 0.000, 0.000, 0.000, 18:41:34.573, 1560958894573
114, 11673.29, 11562.80, 9644.80, 12530.14, 31.67, 2174.40, 18478.50, 5980.68, 0.000, 0.000, 0.000, 18:41:34.573, 1560958894573
115, 11672.26, 11570.00, 9632.77, 12527.73, 39.88, 2183.79, 18537.49, 6022.81, 0.000, 0.000, 0.000, 18:41:34.573, 1560958894573
116, 11660.95, 11560.08, 9630.67, 12522.21, 38.80, 2179.03, 18538.29, 6016.98, 0.000, 0.000, 0.000, 18:41:34.573, 1560958894573
117, 11663.21, 11541.52, 9624.42, 12520.11, 23.00, 2162.15, 18483.28, 5975.02, 0.050, 0.064, -1.036, 18:41:34.573, 1560958894573
118, 11666.72, 11550.26, 9629.80, 12514.96, 18.62, 2150.08, 18448.91, 5936.73, 0.000, 0.000, 0.000, 18:41:34.574, 1560958894574
119, 11692.58, 11582.05, 9652.98, 12535.19, 40.66, 2176.43, 18493.30, 5993.06, 0.000, 0.000, 0.000, 18:41:34.574, 1560958894574
120, 11681.78, 11577.67, 9643.50, 12534.28, 36.93, 2170.62, 18525.59, 5994.54, 0.000, 0.000, 0.000, 18:41:34.574, 1560958894574
121, 11664.53, 11564.55, 9626.56, 12518.67, 26.26, 2158.26, 18504.92, 5981.35, 0.000, 0.000, 0.000, 18:41:34.574, 1560958894574
122, 11663.32, 11560.25, 9616.19, 12509.69, 15.20, 2148.47, 18472.49, 5959.22, 0.000, 0.000, 0.000, 18:41:34.574, 1560958894574
123, 11695.46, 11577.11, 9635.34, 12540.13, 25.62, 2162.51, 18463.61, 5961.28, 0.000, 0.000, 0.000, 18:41:34.574, 1560958894574
124, 11682.50, 11566.89, 9623.45, 12529.90, 10.48, 2143.38, 18440.26, 5936.27, 0.000, 0.000, 0.000, 18:41:34.575, 1560958894575
125, 11669.60, 11558.56, 9614.58, 12524.71, 11.69, 2144.74, 18460.95, 5929.27, 0.000, 0.000, 0.000, 18:41:34.575, 1560958894575
126, 11681.69, 11578.00, 9624.37, 12532.04, 22.91, 2154.80, 18485.92, 5968.14, 0.000, 0.000, 0.000, 18:41:34.575, 1560958894575
127, 11684.06, 11590.72, 9622.09, 12526.43, 18.53, 2143.06, 18460.17, 5951.02, 0.056, 0.068, -1.040, 18:41:34.575, 1560958894575
128, 11684.58, 11575.32, 9634.74, 12535.73, 24.94, 2148.92, 18442.31, 5940.76, 0.000, 0.000, 0.000, 18:41:34.575, 1560958894575
129, 11695.66, 11577.11, 9637.92, 12533.81, 23.00, 2142.73, 18454.85, 5950.28, 0.000, 0.000, 0.000, 18:41:34.575, 1560958894575
130, 11692.22, 11581.85, 9635.03, 12531.93, 23.63, 2136.25, 18474.90, 5937.67, 0.000, 0.000, 0.000, 18:41:34.575, 1560958894575
131, 11701.65, 11590.52, 9642.01, 12547.84, 30.76, 2155.13, 18466.38, 5981.08, 0.000, 0.000, 0.000, 18:41:34.575, 1560958894575
132, 11683.90, 11576.59, 9624.86, 12527.64, 20.14, 2137.56, 18445.08, 5958.37, 0.000, 0.000, 0.000, 18:41:34.575, 1560958894575
133, 11682.43, 11576.17, 9623.41, 12526.90, 18.71, 2135.33, 18441.78, 5966.87, 0.000, 0.000, 0.000, 18:41:34.575, 1560958894575
134, 11694.34, 11581.33, 9635.97, 12544.87, 26.78, 2149.66, 18465.71, 5996.46, 0.000, 0.000, 0.000, 18:41:34.575, 1560958894575
135, 11698.88, 11600.53, 9635.41, 12542.86, 19.96, 2138.86, 18455.32, 5968.32, 0.000, 0.000, 0.000, 18:41:34.575, 1560958894575
136, 11689.92, 11591.68, 9621.89, 12532.51, 4.69, 2121.56, 18415.91, 5924.24, 0.000, 0.000, 0.000, 18:41:34.580, 1560958894580
137, 11682.72, 11580.26, 9618.69, 12529.34, 1.68, 2114.39, 18415.06, 5939.57, 0.052, 0.070, -1.040, 18:41:34.580, 1560958894580
138, 11686.59, 11583.54, 9624.12, 12533.32, 8.74, 2119.59, 18443.45, 5977.53, 0.000, 0.000, 0.000, 18:41:34.580, 1560958894580
139, 11685.74, 11579.46, 9618.96, 12528.29, 7.64, 2121.20, 18453.96, 5976.81, 0.000, 0.000, 0.000, 18:41:34.580, 1560958894580
140, 11697.56, 11592.64, 9631.17, 12539.84, 22.71, 2138.37, 18483.39, 5996.73, 0.000, 0.000, 0.000, 18:41:34.580, 1560958894580
141, 11689.49, 11589.11, 9624.59, 12531.13, 19.71, 2130.10, 18467.21, 5985.17, 0.000, 0.000, 0.000, 18:41:34.581, 1560958894581
142, 11699.37, 11598.19, 9619.03, 12528.55, 10.10, 2119.01, 18416.74, 5960.56, 0.000, 0.000, 0.000, 18:41:34.581, 1560958894581
143, 11695.35, 11602.99, 9622.85, 12529.72, 10.93, 2112.11, 18417.97, 5957.21, 0.000, 0.000, 0.000, 18:41:34.581, 1560958894581
144, 11684.28, 11583.88, 9620.06, 12528.87, 9.79, 2106.85, 18426.53, 5957.37, 0.000, 0.000, 0.000, 18:41:34.581, 1560958894581
145, 11673.78, 11572.17, 9611.79, 12515.57, 3.58, 2099.45, 18436.68, 5956.85, 0.000, 0.000, 0.000, 18:41:34.582, 1560958894582
146, 11684.87, 11590.56, 9616.46, 12524.29, 8.92, 2101.00, 18425.91, 5953.12, 0.000, 0.000, 0.000, 18:41:34.583, 1560958894583
147, 11695.62, 11597.78, 9617.60, 12529.90, 9.23, 2095.99, 18396.51, 5930.83, 0.052, 0.066, -1.040, 18:41:34.583, 1560958894583
148, 11686.39, 11590.45, 9618.13, 12532.11, 12.11, 2096.68, 18407.82, 5948.07, 0.000, 0.000, 0.000, 18:41:34.583, 1560958894583
149, 11655.12, 11563.58, 9595.78, 12510.65, -7.40, 2076.79, 18405.61, 5937.99, 0.000, 0.000, 0.000, 18:41:34.583, 1560958894583
150, 11671.61, 11581.18, 9603.29, 12522.47, 2.08, 2088.06, 18443.56, 5949.01, 0.000, 0.000, 0.000, 18:41:34.583, 1560958894583
151, 11685.07, 11592.49, 9609.19, 12531.08, 7.96, 2096.35, 18434.33, 5949.14, 0.000, 0.000, 0.000, 18:41:34.583, 1560958894583
152, 11674.72, 11583.41, 9603.40, 12523.88, 4.22, 2087.07, 18429.53, 5960.47, 0.000, 0.000, 0.000, 18:41:34.583, 1560958894583
153, 11672.71, 11578.96, 9599.25, 12523.21, 1.97, 2082.20, 18420.99, 5962.95, 0.000, 0.000, 0.000, 18:41:34.583, 1560958894583
154, 11672.88, 11581.62, 9597.68, 12524.26, 2.03, 2083.36, 18421.57, 5952.65, 0.000, 0.000, 0.000, 18:41:34.584, 1560958894584
155, 11671.70, 11582.32, 9593.91, 12515.43, -1.70, 2077.33, 18423.45, 5944.40, 0.000, 0.000, 0.000, 18:41:34.585, 1560958894585
156, 11681.22, 11589.22, 9595.25, 12513.36, -1.94, 2075.07, 18420.54, 5935.06, 0.000, 0.000, 0.000, 18:41:34.585, 1560958894585
157, 11674.96, 11585.94, 9590.66, 12514.07, -3.53, 2068.16, 18409.70, 5921.27, 0.050, 0.072, -1.040, 18:41:34.586, 1560958894586
158, 11661.75, 11574.58, 9584.14, 12511.14, -7.51, 2060.34, 18407.29, 5921.98, 0.000, 0.000, 0.000, 18:41:34.586, 1560958894586
159, 11659.74, 11574.94, 9587.78, 12507.72, -5.74, 2059.15, 18408.65, 5916.08, 0.000, 0.000, 0.000, 18:41:34.586, 1560958894586
160, 11651.96, 11568.66, 9579.44, 12502.98, -10.21, 2055.94, 18422.29, 5920.33, 0.000, 0.000, 0.000, 18:41:34.586, 1560958894586
161, 11651.81, 11566.94, 9576.02, 12504.24, -12.18, 2057.52, 18417.48, 5917.98, 0.000, 0.000, 0.000, 18:41:34.587, 1560958894587
162, 11662.60, 11570.76, 9583.15, 12511.48, -11.06, 2060.58, 18407.80, 5917.74, 0.000, 0.000, 0.000, 18:41:34.587, 1560958894587
163, 11653.22, 11566.18, 9580.83, 12502.76, -20.56, 2046.86, 18382.16, 5896.46, 0.000, 0.000, 0.000, 18:41:34.587, 1560958894587
164, 11649.68, 11565.17, 9581.19, 12504.62, -17.77, 2048.36, 18397.70, 5899.50, 0.000, 0.000, 0.000, 18:41:34.588, 1560958894588
165, 11653.15, 11570.87, 9587.98, 12510.58, -7.40, 2057.34, 18417.57, 5914.20, 0.000, 0.000, 0.000, 18:41:34.588, 1560958894588
166, 11653.08, 11568.28, 9584.12, 12511.57, -7.98, 2056.94, 18410.10, 5913.65, 0.000, 0.000, 0.000, 18:41:34.589, 1560958894589
167, 11638.62, 11553.01, 9569.21, 12497.87, -21.21, 2036.78, 18377.80, 5890.71, 0.054, 0.064, -1.030, 18:41:34.589, 1560958894589
168, 11635.96, 11551.58, 9571.26, 12497.04, -20.99, 2031.73, 18379.59, 5886.42, 0.000, 0.000, 0.000, 18:41:34.589, 1560958894589
169, 11625.83, 11550.00, 9571.42, 12493.24, -23.78, 2027.39, 18382.81, 5881.59, 0.000, 0.000, 0.000, 18:41:34.589, 1560958894589
170, 11621.66, 11548.72, 9573.65, 12487.94, -23.36, 2025.74, 18408.61, 5883.92, 0.000, 0.000, 0.000, 18:41:34.590, 1560958894590
171, 11627.40, 11549.39, 9577.01, 12498.02, -16.74, 2037.67, 18425.88, 5913.24, 0.000, 0.000, 0.000, 18:41:34.590, 1560958894590
172, 11611.02, 11526.37, 9569.32, 12492.90, -20.65, 2029.74, 18400.11, 5894.80, 0.000, 0.000, 0.000, 18:41:34.590, 1560958894590
173, 11577.38, 11507.01, 9559.71, 12470.15, -33.68, 2005.22, 18360.93, 5857.74, 0.000, 0.000, 0.000, 18:41:34.590, 1560958894590
174, 11566.11, 11494.76, 9555.30, 12464.61, -35.14, 2000.79, 18368.19, 5877.37, 0.000, 0.000, 0.000, 18:41:34.591, 1560958894591
175, 11558.42, 11474.56, 9549.65, 12471.80, -27.40, 2015.95, 18415.85, 5910.99, 0.000, 0.000, 0.000, 18:41:34.591, 1560958894591
176, 11549.86, 11460.05, 9542.92, 12472.54, -27.18, 2018.45, 18429.44, 5919.48, 0.000, 0.000, 0.000, 18:41:34.591, 1560958894591
177, 11526.46, 11438.15, 9530.43, 12459.67, -40.48, 1998.11, 18395.46, 5905.58, 0.056, 0.066, -1.032, 18:41:34.591, 1560958894591
178, 11514.52, 11413.67, 9522.47, 12455.26, -46.65, 1989.57, 18382.81, 5894.62, 0.000, 0.000, 0.000, 18:41:34.591, 1560958894591
179, 11507.08, 11402.88, 9517.46, 12455.15, -46.85, 1992.34, 18404.89, 5902.34, 0.000, 0.000, 0.000, 18:41:34.591, 1560958894591
180, 11483.07, 11391.86, 9513.64, 12446.12, -45.28, 1990.15, 18420.05, 5910.34, 0.000, 0.000, 0.000, 18:41:34.591, 1560958894591
181, 11467.52, 11379.34, 9507.54, 12437.14, -48.93, 1982.11, 18406.50, 5906.76, 0.000, 0.000, 0.000, 18:41:34.592, 1560958894592
182, 11452.74, 11360.36, 9498.78, 12430.18, -56.91, 1968.72, 18388.24, 5896.75, 0.000, 0.000, 0.000, 18:41:34.592, 1560958894592
183, 11443.82, 11339.44, 9491.24, 12433.72, -56.64, 1971.49, 18393.00, 5904.39, 0.000, 0.000, 0.000, 18:41:34.593, 1560958894593
184, 11439.94, 11333.72, 9490.53, 12434.92, -59.05, 1970.51, 18392.04, 5902.38, 0.000, 0.000, 0.000, 18:41:34.593, 1560958894593
185, 11426.19, 11322.86, 9488.20, 12428.20, -56.51, 1969.32, 18409.41, 5910.18, 0.000, 0.000, 0.000, 18:41:34.593, 1560958894593
186, 11403.43, 11307.28, 9482.21, 12412.88, -59.05, 1960.61, 18400.45, 5908.15, 0.000, 0.000, 0.000, 18:41:34.593, 1560958894593
187, 11390.31, 11294.89, 9473.25, 12405.04, -66.72, 1950.64, 18369.06, 5892.30, 0.052, 0.066, -1.030, 18:41:34.593, 1560958894593
188, 11402.72, 11300.28, 9479.49, 12417.76, -62.72, 1956.52, 18361.40, 5891.36, 0.000, 0.000, 0.000, 18:41:34.593, 1560958894593
189, 11397.44, 11301.29, 9478.77, 12419.54, -65.31, 1955.76, 18371.86, 5890.94, 0.000, 0.000, 0.000, 18:41:34.594, 1560958894594
190, 11395.10, 11297.06, 9475.69, 12423.95, -65.31, 1958.17, 18380.13, 5896.90, 0.000, 0.000, 0.000, 18:41:34.594, 1560958894594
191, 11408.64, 11306.38, 9477.23, 12425.98, -65.80, 1956.81, 18373.54, 5894.85, 0.000, 0.000, 0.000, 18:41:34.595, 1560958894595
192, 11410.19, 11312.33, 9475.84, 12420.73, -68.75, 1947.04, 18360.75, 5880.07, 0.000, 0.000, 0.000, 18:41:34.597, 1560958894597
193, 11415.44, 11318.90, 9479.98, 12424.13, -66.65, 1944.58, 18346.83, 5858.24, 0.000, 0.000, 0.000, 18:41:34.597, 1560958894597
194, 11413.11, 11324.71, 9477.83, 12416.42, -69.13, 1940.73, 18355.23, 5876.01, 0.000, 0.000, 0.000, 18:41:34.597, 1560958894597
195, 11421.20, 11341.07, 9486.62, 12423.84, -59.05, 1952.45, 18384.00, 5904.26, 0.000, 0.000, 0.000, 18:41:34.597, 1560958894597
196, 11455.65, 11370.51, 9507.29, 12449.52, -38.94, 1981.62, 18409.99, 5935.37, 0.000, 0.000, 0.000, 18:41:34.597, 1560958894597
197, 11469.10, 11385.96, 9510.09, 12447.13, -42.00, 1972.41, 18386.46, 5913.67, 0.056, 0.072, -1.028, 18:41:34.597, 1560958894597
198, 11478.38, 11397.56, 9507.94, 12450.66, -51.59, 1961.01, 18363.81, 5889.15, 0.000, 0.000, 0.000, 18:41:34.598, 1560958894598
199, 11507.15, 11422.77, 9514.09, 12472.14, -44.28, 1972.27, 18395.87, 5905.53, 0.000, 0.000, 0.000, 18:41:34.598, 1560958894598
200, 11527.87, 11448.50, 9523.79, 12483.65, -34.98, 1984.72, 18436.03, 5926.32, 0.000, 0.000, 0.000, 18:41:34.599, 1560958894599
201, 11519.13, 11444.36, 9520.55, 12477.64, -40.95, 1976.12, 18426.78, 5919.23, 0.000, 0.000, 0.000, 18:41:34.599, 1560958894599
202, 11518.77, 11446.22, 9516.39, 12462.82, -53.91, 1955.53, 18388.80, 5892.75, 0.000, 0.000, 0.000, 18:41:34.600, 1560958894600
203, 11538.62, 11460.95, 9523.59, 12467.83, -53.67, 1951.64, 18371.14, 5886.02, 0.000, 0.000, 0.000, 18:41:34.600, 1560958894600
204, 11551.20, 11480.28, 9530.31, 12476.97, -46.42, 1954.24, 18382.21, 5890.73, 0.000, 0.000, 0.000, 18:41:34.600, 1560958894600
205, 11556.37, 11499.26, 9532.79, 12479.65, -38.60, 1957.99, 18400.94, 5895.45, 0.000, 0.000, 0.000, 18:41:34.601, 1560958894601
206, 11570.13, 11514.01, 9539.46, 12484.77, -34.13, 1960.54, 18396.92, 5892.10, 0.000, 0.000, 0.000, 18:41:34.602, 1560958894602
207, 11591.59, 11529.75, 9553.87, 12498.49, -27.81, 1962.84, 18379.75, 5889.30, 0.056, 0.068, -1.034, 18:41:34.602, 1560958894602
208, 11579.59, 11519.11, 9541.92, 12483.14, -39.36, 1950.26, 18357.29, 5873.12, 0.000, 0.000, 0.000, 18:41:34.602, 1560958894602
209, 11587.95, 11528.16, 9542.54, 12481.68, -41.40, 1947.80, 18362.94, 5875.02, 0.000, 0.000, 0.000, 18:41:34.602, 1560958894602
210, 11600.06, 11544.50, 9545.74, 12481.75, -35.74, 1954.15, 18393.27, 5887.11, 0.000, 0.000, 0.000, 18:41:34.602, 1560958894602
211, 11604.98, 11548.83, 9548.15, 12485.55, -29.88, 1957.90, 18408.36, 5896.90, 0.000, 0.000, 0.000, 18:41:34.602, 1560958894602
212, 11601.02, 11543.63, 9542.29, 12483.45, -34.69, 1950.57, 18381.20, 5891.09, 0.000, 0.000, 0.000, 18:41:34.602, 1560958894602
213, 11610.59, 11552.70, 9543.52, 12485.71, -42.49, 1942.72, 18345.95, 5873.21, 0.000, 0.000, 0.000, 18:41:34.602, 1560958894602
214, 11622.04, 11561.60, 9547.50, 12487.67, -42.74, 1940.80, 18363.77, 5876.43, 0.000, 0.000, 0.000, 18:41:34.603, 1560958894603
215, 11634.06, 11572.26, 9551.08, 12490.15, -36.68, 1933.81, 18383.84, 5883.83, 0.000, 0.000, 0.000, 18:41:34.603, 1560958894603
216, 11640.86, 11580.80, 9556.47, 12501.84, -27.60, 1966.98, 18389.38, 5890.53, 0.050, 0.072, -1.032, 18:41:34.603, 1560958894603
217, 11650.15, 11580.68, 9555.82, 12499.74, -28.74, 1960.90, 18384.42, 5888.81, 0.000, 0.000, 0.000, 18:41:34.604, 1560958894604
218, 11640.48, 11577.67, 9548.02, 12500.82, -37.93, 1942.99, 18372.93, 5877.88, 0.000, 0.000, 0.000, 18:41:34.604, 1560958894604
219, 11634.24, 11580.97, 9540.75, 12495.29, -51.83, 1927.88, 18361.69, 5860.34, 0.000, 0.000, 0.000, 18:41:34.604, 1560958894604
220, 11637.39, 11583.84, 9544.89, 12491.58, -48.77, 1939.24, 18382.74, 5874.02, 0.000, 0.000, 0.000, 18:41:34.604, 1560958894604
221, 11634.24, 11581.20, 9543.99, 12496.28, -44.84, 1939.01, 18415.02, 5885.97, 0.000, 0.000, 0.000, 18:41:34.604, 1560958894604
222, 11634.95, 11576.28, 9540.19, 12495.00, -50.89, 1928.71, 18394.01, 5874.40, 0.000, 0.000, 0.000, 18:41:34.605, 1560958894605
223, 11637.68, 11582.70, 9545.67, 12493.19, -54.18, 1919.93, 18373.83, 5867.22, 0.000, 0.000, 0.000, 18:41:34.605, 1560958894605
0, 8582.20, 9462.90, 6583.46, 10299.04, -2274.94, -3353.19, 15985.21, 3700.62, 0.056, 0.074, -1.028, 18:41:53.530, 1560958913530
1, 8582.60, 9462.59, 6579.64, 10299.95, -2277.31, -3354.10, 15973.76, 3699.41, 0.000, 0.000, 0.000, 18:41:53.530, 1560958913530
2, 8579.29, 9456.69, 6576.04, 10298.57, -2282.65, -3360.90, 15952.95, 3688.46, 0.000, 0.000, 0.000, 18:41:53.531, 1560958913531
3, 8578.22, 9455.12, 6578.16, 10298.39, -2283.39, -3363.54, 15950.43, 3684.57, 0.000, 0.000, 0.000, 18:41:53.531, 1560958913531
4, 8580.32, 9457.34, 6579.75, 10299.08, -2279.25, -3363.42, 15965.02, 3689.24, 0.000, 0.000, 0.000, 18:41:53.531, 1560958913531
5, 8578.64, 9457.13, 6578.59, 10298.86, -2274.49, -3360.38, 15984.76, 3697.00, 0.000, 0.000, 0.000, 18:41:53.531, 1560958913531
6, 8578.53, 9458.27, 6579.73, 10301.65, -2273.98, -3360.83, 15972.87, 3696.29, 0.000, 0.000, 0.000, 18:41:53.532, 1560958913532
7, 8577.77, 9457.25, 6577.94, 10300.20, -2280.39, -3369.84, 15944.86, 3684.22, 0.058, 0.076, -1.026, 18:41:53.532, 1560958913532
8, 8574.87, 9451.70, 6574.41, 10298.34, -2284.15, -3374.09, 15942.25, 3677.76, 0.000, 0.000, 0.000, 18:41:53.532, 1560958913532
9, 8575.67, 9456.71, 6576.96, 10299.71, -2277.62, -3368.34, 15965.92, 3685.20, 0.000, 0.000, 0.000, 18:41:53.532, 1560958913532
10, 8577.01, 9457.49, 6576.29, 10302.72, -2273.15, -3359.87, 15985.86, 3695.12, 0.000, 0.000, 0.000, 18:41:53.532, 1560958913532
11, 8578.84, 9456.80, 6573.31, 10304.33, -2274.54, -3359.11, 15973.12, 3697.11, 0.000, 0.000, 0.000, 18:41:53.532, 1560958913532
12, 8579.56, 9457.58, 6570.56, 10303.62, -2281.67, -3366.71, 15945.29, 3686.50, 0.000, 0.000, 0.000, 18:41:53.533, 1560958913533
13, 8579.07, 9455.73, 6569.38, 10302.28, -2285.06, -3369.77, 15940.82, 3680.42, 0.000, 0.000, 0.000, 18:41:53.533, 1560958913533
14, 8575.94, 9454.14, 6566.96, 10302.86, -2281.58, -3365.88, 15961.78, 3687.84, 0.000, 0.000, 0.000, 18:41:53.533, 1560958913533
15, 8577.73, 9460.44, 6567.46, 10306.72, -2277.02, -3357.48, 15977.83, 3695.88, 0.000, 0.000, 0.000, 18:41:53.534, 1560958913534
16, 8578.84, 9459.39, 6565.06, 10305.96, -2275.92, -3355.71, 15966.10, 3695.44, 0.060, 0.072, -1.024, 18:41:53.534, 1560958913534
17, 8577.30, 9458.43, 6563.68, 10303.51, -2279.19, -3359.87, 15941.15, 3687.95, 0.000, 0.000, 0.000, 18:41:53.534, 1560958913534
18, 8581.01, 9459.71, 6563.01, 10303.10, -2279.25, -3363.40, 15932.50, 3681.47, 0.000, 0.000, 0.000, 18:41:53.534, 1560958913534
19, 8575.92, 9457.09, 6560.77, 10300.11, -2276.97, -3363.92, 15952.75, 3683.21, 0.000, 0.000, 0.000, 18:41:53.535, 1560958913535
20, 8574.11, 9457.83, 6560.64, 10301.65, -2275.12, -3359.96, 15973.36, 3690.61, 0.000, 0.000, 0.000, 18:41:53.535, 1560958913535
21, 8577.21, 9460.49, 6563.68, 10302.88, -2278.13, -3363.69, 15964.24, 3690.12, 0.000, 0.000, 0.000, 18:41:53.535, 1560958913535
22, 8575.00, 9456.64, 6560.33, 10298.59, -2284.39, -3372.79, 15947.83, 3680.46, 0.000, 0.000, 0.000, 18:41:53.536, 1560958913536
23, 8569.59, 9453.40, 6555.48, 10295.50, -2289.96, -3378.20, 15944.57, 3674.63, 0.000, 0.000, 0.000, 18:41:53.536, 1560958913536
24, 8571.02, 9457.45, 6557.08, 10299.75, -2287.32, -3370.20, 15969.02, 3684.84, 0.000, 0.000, 0.000, 18:41:53.536, 1560958913536
25, 8569.68, 9458.30, 6555.50, 10299.10, -2284.04, -3365.77, 15977.07, 3695.39, 0.000, 0.000, 0.000, 18:41:53.536, 1560958913536
26, 8566.82, 9455.35, 6548.73, 10295.93, -2287.08, -3368.70, 15963.46, 3695.39, 0.058, 0.066, -1.026, 18:41:53.537, 1560958913537
