%OpenBCI Raw EEG Data
%Number of channels = 8
%Sample Rate = 250.0 Hz
%First Column = SampleIndex
%Last Column = Timestamp 
%Other Columns = EEG data in microvolts followed by Accel Data (in G) interleaved with Aux Data
0, -16.96, -25.48, -23.31, -21.93, -20.70, -14.01, -26.76, -23.72, 0.004, 0.046, -1.030, 16:24:40.701, 1561037080701
1, -16.94, -25.30, -23.34, -21.41, -20.61, -14.17, -27.07, -23.51, 0.000, 0.000, 0.000, 16:24:40.701, 1561037080701
2, -17.26, -25.44, -23.27, -21.68, -20.43, -14.19, -26.82, -23.74, 0.000, 0.000, 0.000, 16:24:40.701, 1561037080701
3, -17.34, -25.50, -23.22, -21.82, -20.43, -14.10, -26.80, -23.80, 0.000, 0.000, 0.000, 16:24:40.701, 1561037080701
4, -17.14, -25.32, -23.20, -21.88, -20.38, -14.13, -26.80, -23.78, 0.000, 0.000, 0.000, 16:24:40.701, 1561037080701
5, -17.23, -25.35, -23.27, -21.75, -20.54, -14.28, -26.76, -23.72, 0.000, 0.000, 0.000, 16:24:40.702, 1561037080702
6, -17.03, -25.53, -23.27, -21.48, -20.43, -14.15, -26.51, -23.51, 0.000, 0.000, 0.000, 16:24:40.702, 1561037080702
7, -17.12, -25.66, -23.40, -21.57, -20.34, -14.15, -26.80, -23.63, 0.002, 0.052, -1.040, 16:24:40.702, 1561037080702
8, -17.41, -25.46, -23.42, -21.64, -20.41, -14.28, -27.05, -23.78, 0.000, 0.000, 0.000, 16:24:40.702, 1561037080702
9, -17.03, -25.48, -23.34, -21.70, -20.50, -14.19, -26.80, -23.69, 0.000, 0.000, 0.000, 16:24:40.702, 1561037080702
10, -17.01, -25.55, -23.31, -21.82, -20.72, -14.04, -26.80, -23.67, 0.000, 0.000, 0.000, 16:24:40.702, 1561037080702
11, -16.81, -25.62, -23.27, -21.82, -20.54, -13.95, -26.98, -23.92, 0.000, 0.000, 0.000, 16:24:40.702, 1561037080702
12, -16.88, -25.68, -23.13, -21.90, -20.27, -14.01, -26.73, -23.72, 0.000, 0.000, 0.000, 16:24:40.702, 1561037080702
13, -16.90, -25.53, -23.20, -21.79, -20.50, -14.28, -26.76, -23.67, 0.000, 0.000, 0.000, 16:24:40.702, 1561037080702
14, -16.92, -25.53, -23.34, -21.70, -20.63, -14.33, -26.76, -23.74, 0.000, 0.000, 0.000, 16:24:40.702, 1561037080702
15, -17.03, -25.77, -23.31, -21.64, -20.38, -14.26, -26.71, -23.63, 0.000, 0.000, 0.000, 16:24:40.761, 1561037080761
16, -17.01, -25.59, -23.31, -21.79, -20.54, -14.28, -26.76, -23.72, 0.000, 0.000, 0.000, 16:24:40.761, 1561037080761
17, -16.90, -25.37, -23.22, -21.75, -20.65, -14.26, -26.82, -23.65, 0.006, 0.052, -1.034, 16:24:40.761, 1561037080761
18, -16.96, -25.44, -23.16, -21.77, -20.59, -14.28, -26.69, -23.72, 0.000, 0.000, 0.000, 16:24:40.762, 1561037080762
19, -16.96, -25.41, -23.42, -21.79, -20.52, -14.08, -26.71, -23.65, 0.000, 0.000, 0.000, 16:24:40.762, 1561037080762
20, -16.74, -25.35, -23.34, -21.64, -20.61, -14.01, -26.67, -23.74, 0.000, 0.000, 0.000, 16:24:40.762, 1561037080762
21, -17.03, -25.28, -23.25, -21.73, -20.59, -14.06, -26.64, -23.63, 0.000, 0.000, 0.000, 16:24:40.762, 1561037080762
22, -17.26, -25.48, -23.25, -21.73, -20.59, -14.13, -26.91, -23.56, 0.000, 0.000, 0.000, 16:24:40.762, 1561037080762
23, -17.23, -25.50, -23.18, -21.84, -20.47, -14.26, -26.93, -23.74, 0.000, 0.000, 0.000, 16:24:40.762, 1561037080762
24, -17.23, -25.37, -23.34, -21.84, -20.59, -14.13, -26.78, -23.74, 0.000, 0.000, 0.000, 16:24:40.762, 1561037080762
25, -17.01, -25.30, -23.22, -21.57, -20.59, -13.99, -26.84, -23.92, 0.000, 0.000, 0.000, 16:24:40.762, 1561037080762
26, -17.12, -25.30, -23.16, -21.61, -20.56, -14.10, -26.84, -23.96, 0.016, 0.054, -1.032, 16:24:40.762, 1561037080762
27, -17.12, -25.55, -23.11, -21.55, -20.72, -14.22, -26.84, -23.74, 0.000, 0.000, 0.000, 16:24:40.762, 1561037080762
28, -17.23, -25.46, -23.22, -21.68, -20.38, -14.19, -26.84, -23.67, 0.000, 0.000, 0.000, 16:24:40.762, 1561037080762
29, -17.23, -25.53, -23.07, -21.95, -20.21, -14.24, -26.69, -23.87, 0.000, 0.000, 0.000, 16:24:40.762, 1561037080762
30, -17.26, -25.75, -23.11, -21.95, -20.54, -14.01, -26.80, -23.92, 0.000, 0.000, 0.000, 16:24:40.820, 1561037080820
31, -17.05, -25.73, -23.34, -21.82, -20.50, -13.97, -26.69, -23.63, 0.000, 0.000, 0.000, 16:24:40.821, 1561037080821
32, -17.17, -25.57, -23.40, -21.50, -20.52, -14.10, -26.64, -23.56, 0.000, 0.000, 0.000, 16:24:40.821, 1561037080821
33, -17.08, -25.50, -23.47, -21.66, -20.47, -14.24, -26.69, -23.72, 0.000, 0.000, 0.000, 16:24:40.821, 1561037080821
34, -17.03, -25.39, -23.18, -21.82, -20.38, -14.10, -26.80, -23.74, 0.000, 0.000, 0.000, 16:24:40.821, 1561037080821
35, -16.94, -25.41, -23.38, -21.61, -20.47, -14.04, -26.80, -23.63, 0.000, 0.000, 0.000, 16:24:40.821, 1561037080821
36, -17.12, -25.55, -23.49, -21.59, -20.63, -13.97, -26.73, -23.63, 0.014, 0.050, -1.036, 16:24:40.821, 1561037080821
37, -17.26, -25.50, -23.20, -21.70, -20.65, -13.93, -26.73, -23.60, 0.000, 0.000, 0.000, 16:24:40.821, 1561037080821
38, -16.99, -25.64, -23.38, -21.64, -20.61, -13.99, -26.64, -23.76, 0.000, 0.000, 0.000, 16:24:40.821, 1561037080821
39, -17.19, -25.70, -23.47, -21.57, -20.59, -14.06, -26.78, -23.80, 0.000, 0.000, 0.000, 16:24:40.821, 1561037080821
40, -17.30, -25.53, -23.00, -21.52, -20.38, -14.22, -26.69, -23.74, 0.000, 0.000, 0.000, 16:24:40.821, 1561037080821
41, -17.23, -25.91, -23.40, -21.57, -20.38, -14.28, -26.84, -23.51, 0.000, 0.000, 0.000, 16:24:40.821, 1561037080821
42, -17.05, -25.64, -23.49, -21.90, -20.56, -14.01, -26.93, -23.38, 0.000, 0.000, 0.000, 16:24:40.821, 1561037080821
43, -16.85, -25.44, -23.34, -21.73, -20.81, -14.04, -26.67, -23.49, 0.000, 0.000, 0.000, 16:24:40.821, 1561037080821
44, -17.01, -25.35, -23.49, -21.64, -20.70, -14.13, -26.67, -23.58, 0.000, 0.000, 0.000, 16:24:40.821, 1561037080821
45, -17.19, -25.39, -23.34, -21.90, -20.85, -14.01, -26.64, -23.63, 0.000, 0.000, 0.000, 16:24:40.880, 1561037080880
46, -17.17, -25.12, -23.38, -21.50, -20.74, -13.99, -26.76, -23.58, 0.012, 0.052, -1.036, 16:24:40.880, 1561037080880
47, -17.19, -25.44, -23.16, -21.59, -20.54, -14.13, -26.80, -23.63, 0.000, 0.000, 0.000, 16:24:40.880, 1561037080880
48, -17.23, -25.55, -23.27, -21.75, -20.59, -14.13, -26.64, -23.74, 0.000, 0.000, 0.000, 16:24:40.880, 1561037080880
49, -17.03, -25.55, -23.34, -21.75, -20.36, -14.15, -26.89, -24.01, 0.000, 0.000, 0.000, 16:24:40.880, 1561037080880
50, -17.03, -25.50, -23.29, -21.77, -20.38, -14.22, -26.96, -23.78, 0.000, 0.000, 0.000, 16:24:40.881, 1561037080881
51, -17.08, -25.39, -23.38, -21.55, -20.50, -14.37, -26.84, -23.60, 0.000, 0.000, 0.000, 16:24:40.881, 1561037080881
52, -17.34, -25.50, -23.34, -21.66, -20.47, -14.17, -26.80, -23.76, 0.000, 0.000, 0.000, 16:24:40.881, 1561037080881
53, -17.30, -25.64, -23.13, -21.75, -20.52, -14.13, -26.89, -23.76, 0.000, 0.000, 0.000, 16:24:40.881, 1561037080881
54, -17.19, -25.73, -23.02, -21.95, -20.68, -14.19, -26.73, -23.67, 0.000, 0.000, 0.000, 16:24:40.881, 1561037080881
55, -16.90, -25.62, -23.11, -22.15, -20.50, -14.31, -26.69, -23.63, 0.000, 0.000, 0.000, 16:24:40.881, 1561037080881
56, -17.01, -25.50, -23.13, -21.93, -20.59, -14.24, -26.58, -23.92, 0.010, 0.052, -1.036, 16:24:40.881, 1561037080881
57, -16.88, -25.57, -23.29, -21.55, -20.61, -14.22, -26.84, -23.85, 0.000, 0.000, 0.000, 16:24:40.881, 1561037080881
58, -16.81, -25.44, -23.27, -21.61, -20.65, -14.08, -26.80, -23.65, 0.000, 0.000, 0.000, 16:24:40.881, 1561037080881
59, -17.14, -25.57, -23.25, -21.61, -20.36, -14.01, -26.64, -23.78, 0.000, 0.000, 0.000, 16:24:40.881, 1561037080881
60, -17.19, -25.64, -23.34, -21.70, -20.32, -13.93, -26.73, -23.80, 0.000, 0.000, 0.000, 16:24:40.940, 1561037080940
61, -17.26, -25.62, -23.11, -21.61, -20.43, -14.15, -26.69, -23.65, 0.000, 0.000, 0.000, 16:24:40.941, 1561037080941
62, -17.12, -25.55, -22.93, -21.61, -20.68, -14.28, -26.69, -23.83, 0.000, 0.000, 0.000, 16:24:40.941, 1561037080941
63, -17.19, -25.28, -23.00, -21.84, -20.70, -14.31, -26.78, -23.78, 0.000, 0.000, 0.000, 16:24:40.941, 1561037080941
64, -17.01, -25.35, -23.00, -21.93, -20.72, -14.28, -26.58, -23.67, 0.000, 0.000, 0.000, 16:24:40.941, 1561037080941
65, -16.83, -25.39, -23.36, -21.68, -20.83, -14.31, -26.67, -23.78, 0.000, 0.000, 0.000, 16:24:40.941, 1561037080941
66, -17.19, -25.46, -23.36, -21.73, -20.54, -14.46, -26.93, -23.85, 0.014, 0.050, -1.026, 16:24:40.941, 1561037080941
67, -17.17, -25.68, -23.27, -21.88, -20.61, -14.42, -26.91, -23.76, 0.000, 0.000, 0.000, 16:24:40.941, 1561037080941
68, -17.03, -25.55, -23.22, -21.82, -20.68, -14.19, -26.62, -23.74, 0.000, 0.000, 0.000, 16:24:40.941, 1561037080941
69, -17.12, -25.41, -23.18, -21.66, -20.45, -14.10, -26.64, -23.72, 0.000, 0.000, 0.000, 16:24:40.941, 1561037080941
70, -17.08, -25.68, -23.18, -21.66, -20.36, -14.13, -26.51, -23.74, 0.000, 0.000, 0.000, 16:24:40.941, 1561037080941
71, -16.99, -25.64, -23.18, -21.79, -20.59, -14.01, -26.69, -23.54, 0.000, 0.000, 0.000, 16:24:40.941, 1561037080941
72, -16.92, -25.53, -23.18, -21.59, -20.97, -14.26, -26.84, -23.67, 0.000, 0.000, 0.000, 16:24:40.941, 1561037080941
73, -17.12, -25.48, -23.27, -21.77, -20.79, -14.37, -26.73, -23.69, 0.000, 0.000, 0.000, 16:24:40.941, 1561037080941
74, -16.99, -25.41, -23.13, -21.84, -20.54, -14.19, -26.87, -23.72, 0.000, 0.000, 0.000, 16:24:40.941, 1561037080941
75, -16.83, -25.48, -23.29, -21.59, -20.59, -14.13, -26.91, -23.67, 0.000, 0.000, 0.000, 16:24:41.001, 1561037081001
76, -16.90, -25.82, -23.51, -21.68, -20.50, -14.26, -26.87, -23.85, 0.018, 0.054, -1.030, 16:24:41.001, 1561037081001
77, -17.03, -25.73, -23.29, -21.82, -20.61, -14.28, -26.87, -23.83, 0.000, 0.000, 0.000, 16:24:41.001, 1561037081001
78, -17.12, -25.39, -23.29, -21.88, -20.45, -14.22, -26.69, -23.83, 0.000, 0.000, 0.000, 16:24:41.001, 1561037081001
79, -17.17, -25.48, -23.29, -21.84, -20.54, -14.17, -26.49, -23.74, 0.000, 0.000, 0.000, 16:24:41.001, 1561037081001
80, -16.94, -25.48, -23.04, -21.59, -20.63, -14.13, -26.69, -23.74, 0.000, 0.000, 0.000, 16:24:41.001, 1561037081001
81, -17.26, -25.50, -23.22, -21.82, -20.68, -14.19, -26.73, -23.67, 0.000, 0.000, 0.000, 16:24:41.001, 1561037081001
82, -17.37, -25.50, -23.18, -21.73, -20.76, -13.99, -26.80, -23.83, 0.000, 0.000, 0.000, 16:24:41.001, 1561037081001
83, -17.08, -25.53, -23.34, -21.57, -20.59, -13.99, -26.73, -23.65, 0.000, 0.000, 0.000, 16:24:41.001, 1561037081001
84, -16.88, -25.62, -23.58, -21.70, -20.54, -14.13, -26.87, -23.63, 0.000, 0.000, 0.000, 16:24:41.001, 1561037081001
85, -17.01, -25.46, -23.49, -21.84, -20.61, -14.08, -26.84, -23.78, 0.000, 0.000, 0.000, 16:24:41.001, 1561037081001
86, -17.03, -25.50, -23.45, -21.82, -20.72, -14.22, -27.02, -23.94, 0.024, 0.048, -1.028, 16:24:41.001, 1561037081001
87, -17.03, -25.55, -23.25, -21.66, -20.59, -14.06, -27.02, -23.54, 0.000, 0.000, 0.000, 16:24:41.001, 1561037081001
88, -17.01, -25.62, -23.22, -21.61, -20.45, -13.99, -26.64, -23.67, 0.000, 0.000, 0.000, 16:24:41.001, 1561037081001
89, -16.96, -25.79, -22.96, -21.75, -20.41, -13.95, -26.67, -23.58, 0.000, 0.000, 0.000, 16:24:41.001, 1561037081001
90, -17.14, -25.44, -23.02, -21.84, -20.65, -14.13, -26.78, -23.67, 0.000, 0.000, 0.000, 16:24:41.061, 1561037081061
91, -17.10, -25.35, -23.00, -21.61, -20.61, -14.04, -26.80, -23.60, 0.000, 0.000, 0.000, 16:24:41.061, 1561037081061
92, -16.92, -25.24, -23.22, -21.84, -20.47, -14.08, -26.98, -23.60, 0.000, 0.000, 0.000, 16:24:41.061, 1561037081061
93, -16.92, -25.44, -23.31, -21.82, -20.50, -14.17, -26.80, -23.65, 0.000, 0.000, 0.000, 16:24:41.061, 1561037081061
94, -16.94, -25.70, -23.27, -21.66, -20.52, -13.95, -26.91, -23.51, 0.000, 0.000, 0.000, 16:24:41.061, 1561037081061
95, -16.96, -25.64, -23.29, -21.70, -20.74, -13.99, -26.89, -23.69, 0.000, 0.000, 0.000, 16:24:41.061, 1561037081061
96, -17.14, -25.39, -23.16, -21.88, -20.72, -14.19, -26.69, -23.72, 0.020, 0.046, -1.030, 16:24:41.061, 1561037081061
97, -17.19, -25.41, -23.16, -21.90, -20.59, -14.33, -26.87, -23.56, 0.000, 0.000, 0.000, 16:24:41.061, 1561037081061
98, -17.12, -25.50, -23.18, -21.77, -20.43, -14.31, -27.00, -23.74, 0.000, 0.000, 0.000, 16:24:41.061, 1561037081061
99, -16.85, -25.39, -23.60, -21.88, -20.52, -14.17, -27.07, -23.78, 0.000, 0.000, 0.000, 16:24:41.062, 1561037081062
100, -16.85, -25.57, -23.49, -21.61, -20.61, -14.04, -26.69, -23.76, 0.000, 0.000, 0.000, 16:24:41.062, 1561037081062
101, -17.05, -25.62, -23.40, -21.75, -20.61, -14.04, -26.87, -23.83, 0.000, 0.000, 0.000, 16:24:41.062, 1561037081062
102, -17.32, -25.41, -23.25, -21.61, -20.61, -14.06, -26.93, -23.63, 0.000, 0.000, 0.000, 16:24:41.062, 1561037081062
103, -17.08, -25.50, -23.34, -21.35, -20.59, -14.01, -26.80, -23.78, 0.000, 0.000, 0.000, 16:24:41.062, 1561037081062
104, -16.92, -25.64, -23.49, -21.66, -20.81, -14.10, -26.76, -23.85, 0.000, 0.000, 0.000, 16:24:41.062, 1561037081062
105, -16.92, -25.50, -23.18, -21.86, -20.88, -14.22, -26.87, -23.78, 0.000, 0.000, 0.000, 16:24:41.122, 1561037081122
106, -16.96, -25.30, -23.38, -21.77, -20.52, -13.99, -26.84, -23.72, 0.022, 0.052, -1.034, 16:24:41.122, 1561037081122
107, -17.12, -25.28, -23.34, -21.70, -20.32, -14.17, -26.89, -23.78, 0.000, 0.000, 0.000, 16:24:41.122, 1561037081122
108, -17.19, -25.35, -23.27, -21.90, -20.47, -14.17, -26.73, -23.78, 0.000, 0.000, 0.000, 16:24:41.122, 1561037081122
109, -17.03, -25.70, -23.09, -21.75, -20.65, -14.15, -26.71, -23.78, 0.000, 0.000, 0.000, 16:24:41.122, 1561037081122
110, -17.17, -25.73, -23.25, -21.57, -20.47, -14.10, -26.69, -23.72, 0.000, 0.000, 0.000, 16:24:41.122, 1561037081122
111, -17.19, -25.70, -23.40, -21.66, -20.41, -14.06, -26.80, -23.74, 0.000, 0.000, 0.000, 16:24:41.122, 1561037081122
112, -17.08, -25.68, -23.29, -21.55, -20.36, -13.88, -26.87, -23.63, 0.000, 0.000, 0.000, 16:24:41.122, 1561037081122
113, -17.03, -25.39, -23.13, -21.82, -20.47, -14.08, -26.80, -23.54, 0.000, 0.000, 0.000, 16:24:41.122, 1561037081122
114, -17.12, -25.57, -23.22, -21.64, -20.38, -14.10, -26.93, -23.49, 0.000, 0.000, 0.000, 16:24:41.122, 1561037081122
115, -17.05, -25.46, -23.29, -21.73, -20.43, -14.06, -26.96, -23.54, 0.000, 0.000, 0.000, 16:24:41.122, 1561037081122
116, -17.12, -25.37, -23.42, -21.73, -20.52, -14.13, -26.80, -23.72, 0.020, 0.050, -1.036, 16:24:41.122, 1561037081122
117, -17.30, -25.41, -23.45, -21.70, -20.45, -14.06, -26.84, -23.72, 0.000, 0.000, 0.000, 16:24:41.122, 1561037081122
118, -17.23, -25.37, -23.29, -21.39, -20.61, -14.10, -27.07, -23.72, 0.000, 0.000, 0.000, 16:24:41.122, 1561037081122
119, -17.19, -25.39, -23.29, -21.39, -20.54, -14.28, -27.05, -23.51, 0.000, 0.000, 0.000, 16:24:41.122, 1561037081122
120, -17.26, -25.66, -23.09, -21.59, -20.34, -14.19, -26.73, -23.60, 0.000, 0.000, 0.000, 16:24:41.180, 1561037081180
121, -17.30, -25.41, -23.11, -21.46, -20.38, -14.15, -26.82, -23.72, 0.000, 0.000, 0.000, 16:24:41.180, 1561037081180
122, -17.03, -25.35, -23.40, -21.66, -20.36, -13.84, -26.91, -23.87, 0.000, 0.000, 0.000, 16:24:41.180, 1561037081180
123, -17.08, -25.57, -23.38, -21.66, -20.41, -14.01, -26.87, -23.87, 0.000, 0.000, 0.000, 16:24:41.180, 1561037081180
124, -17.14, -25.39, -23.34, -21.75, -20.36, -13.68, -26.91, -23.56, 0.000, 0.000, 0.000, 16:24:41.180, 1561037081180
125, -17.05, -25.35, -23.42, -21.84, -20.50, -14.10, -27.07, -23.51, 0.000, 0.000, 0.000, 16:24:41.180, 1561037081180
126, -17.41, -25.35, -23.45, -21.70, -20.56, -14.42, -26.84, -23.69, 0.018, 0.050, -1.038, 16:24:41.180, 1561037081180
127, -17.26, -25.53, -23.34, -21.79, -20.61, -14.17, -26.69, -23.78, 0.000, 0.000, 0.000, 16:24:41.180, 1561037081180
128, -17.26, -25.41, -23.29, -21.79, -20.50, -14.06, -26.87, -23.78, 0.000, 0.000, 0.000, 16:24:41.180, 1561037081180
129, -17.30, -25.66, -22.91, -21.73, -20.54, -14.04, -26.89, -23.72, 0.000, 0.000, 0.000, 16:24:41.180, 1561037081180
130, -17.59, -25.64, -23.00, -21.73, -20.65, -14.13, -26.89, -23.63, 0.000, 0.000, 0.000, 16:24:41.180, 1561037081180
131, -17.32, -25.59, -23.18, -21.70, -20.72, -14.10, -26.80, -23.63, 0.000, 0.000, 0.000, 16:24:41.180, 1561037081180
132, -17.12, -25.50, -23.22, -21.77, -20.56, -14.13, -27.11, -23.76, 0.000, 0.000, 0.000, 16:24:41.180, 1561037081180
133, -17.01, -25.39, -23.27, -21.77, -20.50, -14.22, -26.93, -23.74, 0.000, 0.000, 0.000, 16:24:41.181, 1561037081181
134, -17.01, -25.41, -23.09, -21.59, -20.68, -14.19, -26.80, -23.56, 0.000, 0.000, 0.000, 16:24:41.181, 1561037081181
135, -17.14, -25.62, -23.00, -21.79, -20.54, -13.99, -26.78, -23.80, 0.000, 0.000, 0.000, 16:24:41.240, 1561037081240
136, -17.23, -25.57, -23.29, -21.55, -20.36, -14.04, -26.71, -23.87, 0.016, 0.048, -1.040, 16:24:41.240, 1561037081240
137, -17.23, -25.59, -23.27, -21.61, -20.43, -14.01, -26.76, -23.83, 0.000, 0.000, 0.000, 16:24:41.240, 1561037081240
138, -17.32, -25.53, -23.47, -21.70, -20.50, -14.15, -26.73, -23.80, 0.000, 0.000, 0.000, 16:24:41.240, 1561037081240
139, -17.17, -25.35, -23.38, -21.75, -20.59, -14.33, -26.80, -23.78, 0.000, 0.000, 0.000, 16:24:41.241, 1561037081241
140, -17.34, -25.66, -23.34, -21.84, -20.43, -14.22, -26.91, -23.65, 0.000, 0.000, 0.000, 16:24:41.241, 1561037081241
141, -17.32, -25.64, -23.16, -21.88, -20.56, -14.06, -26.91, -23.56, 0.000, 0.000, 0.000, 16:24:41.241, 1561037081241
142, -17.26, -25.32, -23.07, -21.82, -20.72, -13.97, -26.87, -23.74, 0.000, 0.000, 0.000, 16:24:41.241, 1561037081241
143, -17.14, -25.50, -23.11, -21.84, -20.54, -13.93, -26.80, -23.72, 0.000, 0.000, 0.000, 16:24:41.241, 1561037081241
144, -17.03, -25.24, -23.27, -21.68, -20.74, -14.31, -27.11, -23.69, 0.000, 0.000, 0.000, 16:24:41.241, 1561037081241
145, -17.01, -25.32, -23.18, -21.61, -20.70, -14.24, -27.07, -23.63, 0.014, 0.052, -1.040, 16:24:41.241, 1561037081241
146, -17.34, -25.57, -23.16, -21.68, -20.47, -14.13, -27.00, -23.78, 0.000, 0.000, 0.000, 16:24:41.241, 1561037081241
147, -17.14, -25.50, -23.16, -21.77, -20.50, -14.26, -27.11, -23.83, 0.000, 0.000, 0.000, 16:24:41.241, 1561037081241
148, -16.96, -25.57, -23.40, -21.61, -20.61, -14.24, -26.69, -23.63, 0.000, 0.000, 0.000, 16:24:41.241, 1561037081241
149, -16.99, -25.64, -23.47, -21.44, -20.61, -14.13, -26.80, -23.47, 0.000, 0.000, 0.000, 16:24:41.241, 1561037081241
150, -16.92, -25.57, -23.60, -21.41, -20.54, -14.01, -26.89, -23.76, 0.000, 0.000, 0.000, 16:24:41.301, 1561037081301
151, -17.23, -25.44, -23.18, -21.59, -20.25, -14.28, -26.78, -23.83, 0.000, 0.000, 0.000, 16:24:41.301, 1561037081301
152, -17.26, -25.53, -23.20, -21.59, -20.47, -14.26, -26.96, -23.89, 0.000, 0.000, 0.000, 16:24:41.301, 1561037081301
153, -17.10, -25.46, -23.38, -21.35, -20.36, -14.04, -26.98, -23.83, 0.000, 0.000, 0.000, 16:24:41.301, 1561037081301
154, -17.14, -25.66, -23.40, -21.37, -20.72, -13.99, -26.87, -23.45, 0.000, 0.000, 0.000, 16:24:41.301, 1561037081301
155, -17.26, -25.59, -23.42, -21.75, -20.50, -14.10, -26.80, -23.67, 0.014, 0.046, -1.034, 16:24:41.301, 1561037081301
156, -17.26, -25.57, -23.20, -21.93, -20.38, -14.13, -26.67, -23.60, 0.000, 0.000, 0.000, 16:24:41.301, 1561037081301
157, -17.03, -25.41, -23.16, -21.66, -20.59, -14.10, -26.58, -23.63, 0.000, 0.000, 0.000, 16:24:41.301, 1561037081301
158, -17.08, -25.41, -23.16, -21.48, -20.43, -13.97, -26.96, -23.56, 0.000, 0.000, 0.000, 16:24:41.301, 1561037081301
159, -17.08, -25.50, -23.16, -21.41, -20.63, -14.17, -26.93, -23.85, 0.000, 0.000, 0.000, 16:24:41.301, 1561037081301
160, -17.14, -25.50, -23.27, -21.55, -20.47, -14.31, -26.89, -23.67, 0.000, 0.000, 0.000, 16:24:41.301, 1561037081301
161, -17.21, -25.57, -23.27, -21.46, -20.50, -14.13, -26.69, -23.49, 0.000, 0.000, 0.000, 16:24:41.302, 1561037081302
162, -17.08, -25.46, -23.45, -21.32, -20.50, -14.13, -26.80, -23.63, 0.000, 0.000, 0.000, 16:24:41.302, 1561037081302
163, -17.23, -25.15, -23.29, -21.50, -20.61, -14.39, -26.84, -23.56, 0.000, 0.000, 0.000, 16:24:41.302, 1561037081302
164, -17.12, -25.50, -23.54, -21.70, -20.68, -14.33, -26.91, -23.49, 0.000, 0.000, 0.000, 16:24:41.302, 1561037081302
165, -16.99, -25.55, -23.38, -21.73, -20.54, -14.24, -26.58, -23.83, 0.018, 0.052, -1.038, 16:24:41.361, 1561037081361
166, -16.88, -25.46, -23.18, -21.59, -20.36, -14.13, -26.73, -23.76, 0.000, 0.000, 0.000, 16:24:41.361, 1561037081361
167, -17.05, -25.48, -23.16, -21.57, -20.72, -14.22, -26.76, -23.78, 0.000, 0.000, 0.000, 16:24:41.361, 1561037081361
168, -16.90, -25.62, -23.18, -21.73, -20.74, -13.99, -26.96, -23.72, 0.000, 0.000, 0.000, 16:24:41.361, 1561037081361
169, -16.99, -25.77, -23.20, -21.82, -20.83, -14.24, -27.05, -23.49, 0.000, 0.000, 0.000, 16:24:41.361, 1561037081361
170, -16.90, -25.48, -23.13, -21.50, -20.79, -14.39, -26.76, -23.54, 0.000, 0.000, 0.000, 16:24:41.361, 1561037081361
171, -16.99, -25.37, -23.27, -21.59, -20.54, -14.15, -26.76, -23.49, 0.000, 0.000, 0.000, 16:24:41.362, 1561037081362
172, -17.17, -25.08, -23.20, -21.70, -20.63, -14.17, -26.84, -23.74, 0.000, 0.000, 0.000, 16:24:41.362, 1561037081362
173, -17.03, -25.15, -23.29, -21.75, -20.52, -14.08, -26.78, -23.72, 0.000, 0.000, 0.000, 16:24:41.362, 1561037081362
174, -16.74, -25.46, -23.27, -21.77, -20.65, -13.97, -26.76, -23.76, 0.000, 0.000, 0.000, 16:24:41.362, 1561037081362
175, -17.08, -25.59, -22.96, -21.75, -20.36, -14.13, -26.71, -23.63, 0.014, 0.050, -1.036, 16:24:41.362, 1561037081362
176, -16.96, -25.68, -22.96, -21.64, -20.25, -14.24, -26.89, -23.56, 0.000, 0.000, 0.000, 16:24:41.362, 1561037081362
177, -17.01, -25.44, -23.49, -21.50, -20.54, -13.99, -26.80, -23.60, 0.000, 0.000, 0.000, 16:24:41.362, 1561037081362
178, -17.37, -25.53, -23.58, -21.61, -20.38, -14.06, -26.71, -23.87, 0.000, 0.000, 0.000, 16:24:41.362, 1561037081362
179, -17.14, -25.53, -23.40, -21.77, -20.65, -13.99, -26.53, -23.56, 0.000, 0.000, 0.000, 16:24:41.362, 1561037081362
180, -17.10, -25.59, -23.54, -21.77, -20.43, -13.99, -26.67, -23.63, 0.000, 0.000, 0.000, 16:24:41.421, 1561037081421
181, -17.14, -25.48, -23.18, -21.75, -20.52, -13.99, -26.73, -23.83, 0.000, 0.000, 0.000, 16:24:41.421, 1561037081421
182, -17.03, -25.46, -23.11, -21.73, -20.63, -14.26, -26.84, -23.89, 0.000, 0.000, 0.000, 16:24:41.422, 1561037081422
183, -17.12, -25.62, -23.16, -21.70, -20.70, -14.39, -26.67, -23.72, 0.000, 0.000, 0.000, 16:24:41.422, 1561037081422
184, -17.41, -25.41, -23.34, -21.68, -20.68, -14.35, -26.96, -23.60, 0.000, 0.000, 0.000, 16:24:41.422, 1561037081422
185, -17.19, -25.59, -23.49, -21.75, -20.47, -14.46, -26.76, -23.51, 0.014, 0.050, -1.036, 16:24:41.422, 1561037081422
186, -16.90, -25.62, -23.38, -21.66, -20.61, -14.31, -26.62, -23.74, 0.000, 0.000, 0.000, 16:24:41.422, 1561037081422
187, -16.92, -25.53, -23.31, -21.52, -20.65, -14.10, -26.76, -23.89, 0.000, 0.000, 0.000, 16:24:41.422, 1561037081422
188, -17.19, -25.35, -23.34, -21.57, -20.50, -14.15, -26.87, -23.74, 0.000, 0.000, 0.000, 16:24:41.422, 1561037081422
189, -17.37, -25.57, -23.34, -21.50, -20.52, -13.99, -26.89, -23.74, 0.000, 0.000, 0.000, 16:24:41.422, 1561037081422
190, -17.21, -25.37, -23.34, -21.68, -20.61, -14.10, -26.93, -23.85, 0.000, 0.000, 0.000, 16:24:41.422, 1561037081422
191, -16.81, -25.37, -23.22, -21.66, -20.70, -13.84, -26.76, -23.94, 0.000, 0.000, 0.000, 16:24:41.422, 1561037081422
192, -16.90, -25.79, -23.22, -21.82, -20.68, -13.86, -26.80, -23.98, 0.000, 0.000, 0.000, 16:24:41.422, 1561037081422
193, -17.17, -25.73, -23.58, -21.79, -20.54, -14.01, -26.73, -23.85, 0.000, 0.000, 0.000, 16:24:41.422, 1561037081422
194, -16.99, -25.41, -23.27, -21.64, -20.61, -14.01, -26.53, -23.69, 0.000, 0.000, 0.000, 16:24:41.423, 1561037081423
195, -17.10, -25.46, -22.96, -21.77, -20.61, -14.08, -26.58, -23.72, 0.016, 0.056, -1.040, 16:24:41.480, 1561037081480
196, -17.08, -25.64, -23.16, -21.70, -20.68, -14.28, -26.76, -23.85, 0.000, 0.000, 0.000, 16:24:41.481, 1561037081481
197, -17.21, -25.53, -23.22, -21.61, -20.36, -14.08, -26.91, -23.47, 0.000, 0.000, 0.000, 16:24:41.481, 1561037081481
198, -17.03, -25.50, -23.00, -21.44, -20.54, -14.22, -26.82, -23.51, 0.000, 0.000, 0.000, 16:24:41.481, 1561037081481
199, -17.14, -25.55, -23.18, -21.70, -20.63, -14.06, -26.80, -23.60, 0.000, 0.000, 0.000, 16:24:41.481, 1561037081481
200, -16.88, -25.62, -23.22, -21.75, -20.56, -14.06, -26.71, -23.63, 0.000, 0.000, 0.000, 16:24:41.481, 1561037081481
201, -17.08, -25.66, -23.18, -21.39, -20.43, -13.99, -26.91, -23.74, 0.000, 0.000, 0.000, 16:24:41.481, 1561037081481
202, -17.28, -25.64, -23.27, -21.39, -20.59, -13.79, -26.87, -23.74, 0.000, 0.000, 0.000, 16:24:41.481, 1561037081481
203, -17.19, -25.73, -23.31, -21.70, -20.32, -13.97, -26.96, -23.78, 0.000, 0.000, 0.000, 16:24:41.481, 1561037081481
204, -17.19, -25.64, -23.38, -21.77, -20.38, -13.90, -26.84, -23.72, 0.000, 0.000, 0.000, 16:24:41.481, 1561037081481
205, -17.14, -25.53, -23.29, -21.82, -20.47, -13.95, -26.87, -23.60, 0.012, 0.056, -1.040, 16:24:41.481, 1561037081481
206, -17.26, -25.35, -23.27, -21.61, -20.43, -14.35, -27.14, -23.63, 0.000, 0.000, 0.000, 16:24:41.481, 1561037081481
207, -17.26, -25.35, -23.34, -21.73, -20.54, -14.26, -27.20, -23.65, 0.000, 0.000, 0.000, 16:24:41.481, 1561037081481
208, -16.74, -25.41, -23.36, -21.73, -20.68, -14.01, -27.07, -23.78, 0.000, 0.000, 0.000, 16:24:41.481, 1561037081481
209, -17.08, -25.50, -23.60, -21.88, -20.43, -14.17, -26.80, -23.87, 0.000, 0.000, 0.000, 16:24:41.481, 1561037081481
210, -17.37, -25.37, -23.34, -21.82, -20.50, -14.28, -26.64, -23.89, 0.000, 0.000, 0.000, 16:24:41.540, 1561037081540
211, -17.14, -25.59, -23.11, -21.82, -20.36, -14.35, -26.84, -23.63, 0.000, 0.000, 0.000, 16:24:41.540, 1561037081540
212, -16.83, -25.37, -23.00, -21.66, -20.38, -14.24, -26.93, -23.45, 0.000, 0.000, 0.000, 16:24:41.540, 1561037081540
213, -16.83, -25.30, -23.20, -21.66, -20.54, -14.10, -26.73, -23.63, 0.000, 0.000, 0.000, 16:24:41.541, 1561037081541
214, -16.94, -25.57, -23.18, -21.70, -20.45, -14.22, -26.73, -23.67, 0.000, 0.000, 0.000, 16:24:41.541, 1561037081541
215, -17.12, -25.30, -23.40, -21.73, -20.70, -14.35, -26.76, -23.89, 0.014, 0.054, -1.040, 16:24:41.541, 1561037081541
216, -17.08, -25.46, -23.51, -21.88, -20.68, -14.28, -26.69, -23.74, 0.000, 0.000, 0.000, 16:24:41.541, 1561037081541
217, -16.85, -25.59, -23.18, -21.64, -20.63, -14.06, -26.87, -23.60, 0.000, 0.000, 0.000, 16:24:41.541, 1561037081541
218, -17.03, -25.62, -23.04, -21.50, -20.65, -14.13, -26.98, -23.67, 0.000, 0.000, 0.000, 16:24:41.541, 1561037081541
219, -17.03, -25.57, -23.18, -21.59, -20.61, -14.24, -26.69, -23.45, 0.000, 0.000, 0.000, 16:24:41.541, 1561037081541
220, -16.96, -25.55, -23.20, -21.44, -20.63, -14.13, -26.46, -23.60, 0.000, 0.000, 0.000, 16:24:41.541, 1561037081541
221, -17.01, -25.53, -23.29, -21.61, -20.59, -14.22, -26.58, -23.85, 0.000, 0.000, 0.000, 16:24:41.541, 1561037081541
222, -17.14, -25.44, -23.38, -21.64, -20.52, -14.24, -26.71, -23.67, 0.000, 0.000, 0.000, 16:24:41.541, 1561037081541
223, -17.12, -25.39, -23.34, -21.86, -20.54, -13.99, -27.07, -23.67, 0.000, 0.000, 0.000, 16:24:41.541, 1561037081541
224, -17.08, -25.50, -23.42, -21.82, -20.68, -14.10, -26.87, -23.65, 0.000, 0.000, 0.000, 16:24:41.541, 1561037081541
225, -17.23, -25.17, -23.38, -21.73, -20.61, -14.28, -26.84, -23.74, 0.016, 0.056, -1.034, 16:24:41.600, 1561037081600
226, -17.12, -25.26, -23.29, -21.37, -20.36, -14.10, -26.82, -23.83, 0.000, 0.000, 0.000, 16:24:41.601, 1561037081601
227, -16.94, -25.46, -23.38, -21.52, -20.38, -14.04, -26.73, -23.67, 0.000, 0.000, 0.000, 16:24:41.602, 1561037081602
228, -16.92, -25.50, -23.31, -21.61, -20.54, -13.90, -26.89, -23.69, 0.000, 0.000, 0.000, 16:24:41.602, 1561037081602
229, -17.01, -25.39, -23.09, -21.75, -20.54, -13.90, -26.80, -23.72, 0.000, 0.000, 0.000, 16:24:41.602, 1561037081602
230, -16.96, -25.53, -23.29, -22.06, -20.45, -14.13, -26.80, -23.83, 0.000, 0.000, 0.000, 16:24:41.602, 1561037081602
231, -16.94, -25.59, -23.47, -21.88, -20.76, -14.06, -26.80, -24.01, 0.000, 0.000, 0.000, 16:24:41.602, 1561037081602
232, -17.34, -25.62, -23.31, -21.64, -20.56, -13.97, -26.73, -23.85, 0.000, 0.000, 0.000, 16:24:41.602, 1561037081602
233, -17.19, -25.46, -23.51, -21.59, -20.27, -14.13, -26.73, -23.78, 0.000, 0.000, 0.000, 16:24:41.602, 1561037081602
234, -16.99, -25.55, -23.49, -21.55, -20.30, -14.13, -26.67, -23.78, 0.000, 0.000, 0.000, 16:24:41.602, 1561037081602
235, -16.92, -25.73, -23.36, -21.64, -20.43, -14.17, -26.84, -23.74, 0.014, 0.052, -1.032, 16:24:41.602, 1561037081602
236, -17.05, -25.91, -23.36, -21.66, -20.27, -14.31, -26.87, -23.49, 0.000, 0.000, 0.000, 16:24:41.602, 1561037081602
237, -17.14, -25.70, -23.34, -21.59, -20.50, -14.17, -26.87, -23.65, 0.000, 0.000, 0.000, 16:24:41.603, 1561037081603
238, -17.19, -25.46, -23.34, -21.82, -20.45, -14.39, -26.96, -23.72, 0.000, 0.000, 0.000, 16:24:41.603, 1561037081603
239, -17.17, -25.41, -23.29, -21.86, -20.45, -14.15, -26.87, -23.74, 0.000, 0.000, 0.000, 16:24:41.603, 1561037081603
240, -17.37, -25.41, -23.40, -21.82, -20.63, -14.24, -26.84, -23.89, 0.000, 0.000, 0.000, 16:24:41.661, 1561037081661
241, -17.30, -25.37, -23.29, -21.90, -20.61, -14.22, -26.76, -23.74, 0.000, 0.000, 0.000, 16:24:41.661, 1561037081661
242, -17.30, -25.32, -23.47, -21.57, -20.59, -14.10, -26.80, -23.63, 0.000, 0.000, 0.000, 16:24:41.661, 1561037081661
243, -17.26, -25.46, -23.56, -21.59, -20.50, -14.13, -26.87, -23.67, 0.000, 0.000, 0.000, 16:24:41.661, 1561037081661
244, -17.12, -25.55, -23.22, -21.73, -20.50, -14.37, -26.93, -23.60, 0.000, 0.000, 0.000, 16:24:41.661, 1561037081661
245, -16.99, -25.50, -22.80, -21.77, -20.52, -14.24, -26.98, -23.72, 0.012, 0.054, -1.034, 16:24:41.661, 1561037081661
246, -17.01, -25.44, -23.07, -21.77, -20.38, -14.37, -26.84, -23.69, 0.000, 0.000, 0.000, 16:24:41.661, 1561037081661
247, -17.30, -25.46, -23.34, -21.82, -20.47, -14.24, -26.73, -23.67, 0.000, 0.000, 0.000, 16:24:41.661, 1561037081661
248, -17.10, -25.41, -23.42, -21.46, -20.50, -14.31, -26.69, -23.78, 0.000, 0.000, 0.000, 16:24:41.661, 1561037081661
249, -17.05, -25.41, -23.20, -21.68, -20.50, -14.10, -26.58, -23.87, 0.000, 0.000, 0.000, 16:24:41.661, 1561037081661
250, -17.01, -25.55, -23.20, -21.57, -20.50, -14.06, -26.71, -23.65, 0.000, 0.000, 0.000, 16:24:41.662, 1561037081662
251, -17.01, -25.57, -23.22, -21.66, -20.47, -13.99, -26.80, -23.40, 0.000, 0.000, 0.000, 16:24:41.662, 1561037081662
252, -17.01, -25.46, -23.11, -21.66, -20.21, -14.01, -26.82, -23.51, 0.000, 0.000, 0.000, 16:24:41.662, 1561037081662
253, -17.01, -25.39, -23.09, -21.79, -20.41, -13.99, -26.82, -23.60, 0.000, 0.000, 0.000, 16:24:41.662, 1561037081662
254, -17.12, -25.57, -23.07, -21.73, -20.38, -13.97, -26.84, -23.74, 0.000, 0.000, 0.000, 16:24:41.662, 1561037081662
255, -17.03, -25.68, -23.22, -21.55, -20.38, -14.04, -26.55, -23.72, 0.018, 0.050, -1.038, 16:24:41.721, 1561037081721
0, -16.90, -25.70, -23.29, -21.82, -20.41, -14.15, -26.53, -23.65, 0.000, 0.000, 0.000, 16:24:41.721, 1561037081721
1, -17.01, -25.53, -23.04, -21.50, -20.16, -14.04, -26.67, -23.67, 0.000, 0.000, 0.000, 16:24:41.721, 1561037081721
2, -17.26, -25.39, -23.16, -21.77, -20.54, -14.08, -26.62, -23.65, 0.000, 0.000, 0.000, 16:24:41.721, 1561037081721
3, -17.26, -25.53, -23.27, -21.77, -20.32, -14.17, -26.73, -23.51, 0.000, 0.000, 0.000, 16:24:41.721, 1561037081721
4, -17.03, -25.64, -23.49, -21.79, -20.36, -14.01, -26.76, -23.67, 0.000, 0.000, 0.000, 16:24:41.721, 1561037081721
5, -17.03, -25.28, -23.38, -21.61, -20.52, -14.13, -26.69, -23.80, 0.000, 0.000, 0.000, 16:24:41.721, 1561037081721
6, -17.05, -25.62, -23.13, -21.75, -20.34, -14.17, -26.76, -23.56, 0.000, 0.000, 0.000, 16:24:41.721, 1561037081721
7, -17.08, -25.50, -23.34, -21.84, -20.56, -14.24, -26.87, -23.72, 0.000, 0.000, 0.000, 16:24:41.721, 1561037081721
8, -17.23, -25.53, -23.45, -21.73, -20.43, -14.26, -26.82, -23.74, 0.020, 0.050, -1.034, 16:24:41.721, 1561037081721
9, -16.96, -25.50, -23.56, -21.52, -20.47, -14.13, -26.76, -23.76, 0.000, 0.000, 0.000, 16:24:41.722, 1561037081722
10, -17.12, -25.50, -23.51, -21.55, -20.47, -14.24, -26.78, -23.76, 0.000, 0.000, 0.000, 16:24:41.722, 1561037081722
11, -17.01, -25.37, -23.34, -21.48, -20.54, -14.06, -26.87, -23.56, 0.000, 0.000, 0.000, 16:24:41.722, 1561037081722
12, -16.83, -25.48, -23.34, -21.70, -20.54, -14.10, -26.96, -23.56, 0.000, 0.000, 0.000, 16:24:41.722, 1561037081722
13, -17.14, -25.41, -23.27, -21.64, -20.47, -14.01, -26.89, -23.80, 0.000, 0.000, 0.000, 16:24:41.722, 1561037081722
14, -17.05, -25.24, -23.45, -21.52, -20.54, -13.97, -26.73, -23.74, 0.000, 0.000, 0.000, 16:24:41.781, 1561037081781
15, -16.96, -25.62, -23.22, -21.68, -20.54, -13.88, -26.69, -23.74, 0.000, 0.000, 0.000, 16:24:41.781, 1561037081781
16, -16.99, -25.70, -23.20, -21.55, -20.65, -14.17, -26.93, -23.60, 0.000, 0.000, 0.000, 16:24:41.781, 1561037081781
17, -16.90, -25.64, -23.29, -21.68, -20.47, -14.39, -26.89, -23.74, 0.000, 0.000, 0.000, 16:24:41.781, 1561037081781
18, -16.90, -25.39, -23.27, -21.66, -20.36, -14.10, -26.71, -23.78, 0.018, 0.046, -1.034, 16:24:41.781, 1561037081781
19, -16.99, -25.53, -23.22, -21.79, -20.32, -13.99, -26.53, -23.60, 0.000, 0.000, 0.000, 16:24:41.781, 1561037081781
20, -16.99, -25.48, -23.40, -21.66, -20.21, -14.10, -26.76, -23.74, 0.000, 0.000, 0.000, 16:24:41.781, 1561037081781
21, -16.92, -25.73, -23.51, -21.77, -20.38, -14.24, -26.73, -23.78, 0.000, 0.000, 0.000, 16:24:41.781, 1561037081781
22, -17.14, -25.70, -23.38, -21.77, -20.63, -14.22, -26.71, -23.74, 0.000, 0.000, 0.000, 16:24:41.781, 1561037081781
23, -17.19, -25.57, -23.29, -21.55, -20.38, -14.22, -26.67, -23.54, 0.000, 0.000, 0.000, 16:24:41.782, 1561037081782
24, -16.99, -25.50, -23.22, -21.50, -20.07, -14.35, -26.53, -23.49, 0.000, 0.000, 0.000, 16:24:41.782, 1561037081782
25, -17.03, -25.41, -23.27, -21.50, -20.50, -14.13, -26.73, -23.78, 0.000, 0.000, 0.000, 16:24:41.782, 1561037081782
26, -17.21, -25.48, -23.40, -21.66, -20.38, -13.86, -26.98, -23.74, 0.000, 0.000, 0.000, 16:24:41.782, 1561037081782
27, -17.19, -25.37, -23.31, -21.68, -20.63, -14.08, -26.96, -23.72, 0.000, 0.000, 0.000, 16:24:41.782, 1561037081782
28, -17.14, -25.30, -23.29, -21.55, -20.70, -13.97, -26.58, -23.74, 0.020, 0.046, -1.026, 16:24:41.782, 1561037081782
29, -17.19, -25.53, -23.40, -21.70, -20.72, -14.10, -26.62, -23.56, 0.000, 0.000, 0.000, 16:24:41.840, 1561037081840
30, -17.05, -25.59, -23.25, -21.73, -20.61, -14.04, -26.80, -23.72, 0.000, 0.000, 0.000, 16:24:41.840, 1561037081840
31, -16.99, -25.68, -23.45, -21.66, -20.56, -13.99, -26.80, -23.67, 0.000, 0.000, 0.000, 16:24:41.840, 1561037081840
32, -16.96, -25.68, -23.27, -21.88, -20.65, -14.17, -26.84, -23.69, 0.000, 0.000, 0.000, 16:24:41.840, 1561037081840
33, -17.23, -25.44, -23.18, -21.75, -20.59, -13.99, -26.84, -23.74, 0.000, 0.000, 0.000, 16:24:41.840, 1561037081840
34, -17.05, -25.68, -23.20, -21.77, -20.70, -14.17, -26.80, -23.72, 0.000, 0.000, 0.000, 16:24:41.840, 1561037081840
35, -17.01, -25.46, -23.29, -21.70, -20.76, -14.35, -26.98, -23.83, 0.000, 0.000, 0.000, 16:24:41.841, 1561037081841
36, -17.23, -25.44, -23.29, -21.84, -20.68, -14.28, -26.98, -23.94, 0.000, 0.000, 0.000, 16:24:41.841, 1561037081841
37, -17.26, -25.68, -23.34, -21.66, -20.54, -14.22, -26.80, -23.69, 0.000, 0.000, 0.000, 16:24:41.841, 1561037081841
38, -17.37, -25.62, -23.29, -21.73, -20.41, -14.13, -26.84, -23.60, 0.018, 0.054, -1.032, 16:24:41.841, 1561037081841
39, -16.96, -25.53, -23.11, -21.73, -20.50, -14.01, -26.73, -23.51, 0.000, 0.000, 0.000, 16:24:41.841, 1561037081841
40, -16.79, -25.57, -23.22, -21.75, -20.65, -14.26, -26.69, -23.63, 0.000, 0.000, 0.000, 16:24:41.841, 1561037081841
41, -17.08, -25.64, -23.29, -21.82, -20.50, -14.39, -26.71, -23.76, 0.000, 0.000, 0.000, 16:24:41.841, 1561037081841
42, -17.08, -25.39, -23.63, -21.73, -20.23, -14.10, -26.64, -23.60, 0.000, 0.000, 0.000, 16:24:41.841, 1561037081841
43, -17.30, -25.50, -23.34, -21.75, -20.38, -14.10, -27.02, -23.65, 0.000, 0.000, 0.000, 16:24:41.841, 1561037081841
44, -17.26, -25.50, -23.27, -21.73, -20.54, -13.95, -27.05, -23.67, 0.000, 0.000, 0.000, 16:24:41.900, 1561037081900
45, -16.88, -25.48, -23.27, -21.66, -20.59, -14.10, -27.16, -23.74, 0.000, 0.000, 0.000, 16:24:41.901, 1561037081901
46, -16.81, -25.48, -23.40, -21.55, -20.63, -14.17, -26.71, -23.89, 0.000, 0.000, 0.000, 16:24:41.901, 1561037081901
47, -16.83, -25.62, -23.40, -21.93, -20.70, -14.10, -26.89, -23.94, 0.000, 0.000, 0.000, 16:24:41.901, 1561037081901
48, -16.83, -25.70, -23.29, -21.82, -20.43, -14.01, -26.82, -23.54, 0.018, 0.058, -1.036, 16:24:41.901, 1561037081901
49, -16.90, -25.57, -23.29, -21.66, -20.50, -14.17, -26.82, -23.63, 0.000, 0.000, 0.000, 16:24:41.901, 1561037081901
50, -17.05, -25.64, -23.16, -21.68, -20.61, -14.17, -26.64, -23.67, 0.000, 0.000, 0.000, 16:24:41.901, 1561037081901
51, -17.19, -25.12, -23.31, -21.86, -20.56, -14.10, -26.78, -23.45, 0.000, 0.000, 0.000, 16:24:41.901, 1561037081901
52, -17.30, -25.19, -23.34, -21.68, -20.54, -14.06, -27.00, -23.40, 0.000, 0.000, 0.000, 16:24:41.901, 1561037081901
53, -17.19, -25.68, -23.38, -21.66, -20.43, -13.95, -27.02, -23.36, 0.000, 0.000, 0.000, 16:24:41.901, 1561037081901
54, -17.05, -25.55, -23.40, -21.88, -20.52, -13.95, -27.07, -23.40, 0.000, 0.000, 0.000, 16:24:41.901, 1561037081901
55, -17.14, -25.35, -23.38, -21.73, -20.43, -14.10, -27.07, -23.54, 0.000, 0.000, 0.000, 16:24:41.901, 1561037081901
56, -17.23, -25.30, -23.29, -21.82, -20.45, -14.33, -26.69, -23.80, 0.000, 0.000, 0.000, 16:24:41.901, 1561037081901
57, -17.12, -25.57, -23.51, -21.73, -20.59, -13.93, -26.76, -23.67, 0.000, 0.000, 0.000, 16:24:41.901, 1561037081901
58, -17.01, -25.53, -23.27, -21.64, -20.47, -14.01, -27.18, -23.58, 0.014, 0.058, -1.034, 16:24:41.901, 1561037081901
59, -16.99, -25.35, -23.25, -21.68, -20.61, -14.31, -26.91, -23.51, 0.000, 0.000, 0.000, 16:24:41.960, 1561037081960
60, -17.21, -25.57, -23.11, -21.66, -20.70, -14.28, -26.84, -23.58, 0.000, 0.000, 0.000, 16:24:41.960, 1561037081960
61, -17.23, -25.50, -23.18, -21.50, -20.56, -14.22, -26.73, -23.80, 0.000, 0.000, 0.000, 16:24:41.960, 1561037081960
62, -17.14, -25.46, -23.38, -21.68, -20.65, -14.01, -26.89, -23.74, 0.000, 0.000, 0.000, 16:24:41.960, 1561037081960
63, -17.12, -25.41, -23.34, -21.59, -20.59, -13.97, -26.87, -23.63, 0.000, 0.000, 0.000, 16:24:41.961, 1561037081961
64, -17.03, -25.30, -23.27, -21.46, -20.54, -14.13, -26.98, -23.63, 0.000, 0.000, 0.000, 16:24:41.961, 1561037081961
65, -17.21, -25.39, -23.49, -21.61, -20.41, -14.24, -26.87, -23.94, 0.000, 0.000, 0.000, 16:24:41.961, 1561037081961
66, -17.14, -25.53, -23.34, -21.64, -20.27, -14.31, -26.76, -23.83, 0.000, 0.000, 0.000, 16:24:41.961, 1561037081961
67, -16.96, -25.44, -23.42, -21.61, -20.47, -13.84, -26.53, -23.85, 0.000, 0.000, 0.000, 16:24:41.961, 1561037081961
68, -17.21, -25.48, -23.49, -21.88, -20.43, -13.95, -26.53, -23.76, 0.014, 0.062, -1.034, 16:24:41.961, 1561037081961
69, -17.17, -25.50, -23.40, -21.59, -20.36, -13.88, -26.73, -23.74, 0.000, 0.000, 0.000, 16:24:41.961, 1561037081961
70, -17.08, -25.39, -23.22, -21.70, -20.36, -13.90, -26.78, -23.67, 0.000, 0.000, 0.000, 16:24:41.961, 1561037081961
71, -17.01, -25.62, -23.22, -21.68, -20.54, -14.22, -26.87, -23.67, 0.000, 0.000, 0.000, 16:24:41.961, 1561037081961
72, -17.03, -25.59, -23.22, -21.84, -20.54, -14.33, -26.80, -23.69, 0.000, 0.000, 0.000, 16:24:41.961, 1561037081961
73, -16.96, -25.73, -22.98, -21.88, -20.50, -14.13, -27.00, -23.72, 0.000, 0.000, 0.000, 16:24:41.961, 1561037081961
74, -17.14, -25.57, -23.07, -21.99, -20.47, -14.06, -26.91, -23.69, 0.000, 0.000, 0.000, 16:24:42.021, 1561037082021
75, -17.12, -25.57, -23.27, -21.77, -20.36, -14.10, -26.96, -23.63, 0.000, 0.000, 0.000, 16:24:42.021, 1561037082021
76, -17.05, -25.53, -23.27, -21.88, -20.36, -13.90, -26.84, -23.58, 0.000, 0.000, 0.000, 16:24:42.021, 1561037082021
77, -17.14, -25.48, -23.13, -21.66, -20.27, -14.15, -26.53, -23.63, 0.000, 0.000, 0.000, 16:24:42.021, 1561037082021
78, -17.17, -25.39, -23.18, -21.75, -20.50, -14.42, -26.76, -23.54, 0.018, 0.050, -1.040, 16:24:42.021, 1561037082021
79, -17.03, -25.32, -23.40, -21.88, -20.47, -14.35, -26.96, -23.60, 0.000, 0.000, 0.000, 16:24:42.021, 1561037082021
80, -17.03, -25.41, -23.27, -21.66, -20.59, -14.51, -26.80, -23.74, 0.000, 0.000, 0.000, 16:24:42.021, 1561037082021
81, -17.10, -25.73, -23.11, -21.82, -20.47, -14.26, -26.69, -23.72, 0.000, 0.000, 0.000, 16:24:42.021, 1561037082021
82, -16.85, -25.62, -23.18, -21.82, -20.47, -14.10, -26.53, -23.74, 0.000, 0.000, 0.000, 16:24:42.021, 1561037082021
83, -17.17, -25.64, -23.38, -21.59, -20.38, -14.13, -27.02, -23.80, 0.000, 0.000, 0.000, 16:24:42.021, 1561037082021
84, -16.92, -25.46, -23.29, -21.55, -20.43, -14.22, -26.98, -23.63, 0.000, 0.000, 0.000, 16:24:42.021, 1561037082021
85, -17.08, -25.66, -23.22, -21.84, -20.54, -14.17, -26.84, -23.89, 0.000, 0.000, 0.000, 16:24:42.022, 1561037082022
86, -17.19, -25.48, -22.96, -21.86, -20.50, -14.35, -27.02, -23.83, 0.000, 0.000, 0.000, 16:24:42.022, 1561037082022
87, -17.12, -25.62, -23.22, -21.73, -20.36, -14.22, -26.98, -23.74, 0.000, 0.000, 0.000, 16:24:42.022, 1561037082022
88, -17.26, -25.66, -23.20, -21.48, -20.54, -14.06, -26.62, -23.76, 0.022, 0.046, -1.032, 16:24:42.022, 1561037082022
89, -17.30, -25.66, -23.29, -21.59, -20.41, -13.93, -26.58, -23.78, 0.000, 0.000, 0.000, 16:24:42.081, 1561037082081
90, -17.19, -25.53, -23.27, -22.08, -20.65, -14.19, -26.69, -23.65, 0.000, 0.000, 0.000, 16:24:42.081, 1561037082081
91, -17.26, -25.44, -23.47, -22.15, -20.88, -14.28, -26.80, -23.65, 0.000, 0.000, 0.000, 16:24:42.081, 1561037082081
92, -17.30, -25.39, -23.51, -21.82, -20.79, -14.22, -26.98, -23.83, 0.000, 0.000, 0.000, 16:24:42.081, 1561037082081
93, -17.08, -25.48, -23.16, -21.77, -20.50, -14.26, -26.76, -23.47, 0.000, 0.000, 0.000, 16:24:42.081, 1561037082081
94, -17.26, -25.75, -23.27, -21.84, -20.54, -14.15, -26.69, -23.58, 0.000, 0.000, 0.000, 16:24:42.081, 1561037082081
95, -17.48, -25.62, -23.36, -21.59, -20.54, -14.01, -26.73, -23.83, 0.000, 0.000, 0.000, 16:24:42.081, 1561037082081
96, -17.21, -25.59, -23.27, -21.84, -20.50, -13.99, -26.62, -23.78, 0.000, 0.000, 0.000, 16:24:42.081, 1561037082081
97, -17.12, -25.46, -23.16, -21.73, -20.61, -14.01, -26.71, -23.74, 0.000, 0.000, 0.000, 16:24:42.081, 1561037082081
98, -17.05, -25.37, -23.20, -21.73, -20.38, -14.13, -26.91, -23.69, 0.022, 0.050, -1.034, 16:24:42.081, 1561037082081
99, -17.23, -25.35, -23.29, -21.77, -20.59, -14.01, -27.22, -23.65, 0.000, 0.000, 0.000, 16:24:42.081, 1561037082081
100, -17.03, -25.53, -23.29, -21.73, -20.81, -14.13, -27.09, -23.76, 0.000, 0.000, 0.000, 16:24:42.081, 1561037082081
101, -17.03, -25.50, -23.49, -21.61, -20.61, -14.33, -26.87, -24.12, 0.000, 0.000, 0.000, 16:24:42.081, 1561037082081
102, -16.74, -25.53, -23.56, -21.44, -20.27, -14.39, -26.80, -23.94, 0.000, 0.000, 0.000, 16:24:42.082, 1561037082082
103, -16.96, -25.53, -23.60, -21.77, -20.59, -14.15, -26.76, -23.85, 0.000, 0.000, 0.000, 16:24:42.082, 1561037082082
104, -17.12, -25.50, -23.11, -21.55, -20.83, -14.17, -26.80, -23.60, 0.000, 0.000, 0.000, 16:24:42.140, 1561037082140
105, -17.14, -25.48, -23.07, -21.59, -20.72, -14.33, -26.96, -23.65, 0.000, 0.000, 0.000, 16:24:42.141, 1561037082141
106, -17.10, -25.53, -23.22, -21.82, -20.70, -14.48, -26.80, -23.58, 0.000, 0.000, 0.000, 16:24:42.141, 1561037082141
107, -17.17, -25.68, -23.36, -21.79, -20.47, -14.17, -26.73, -23.89, 0.000, 0.000, 0.000, 16:24:42.141, 1561037082141
108, -17.12, -25.44, -23.40, -21.66, -20.59, -14.13, -26.60, -23.85, 0.014, 0.050, -1.038, 16:24:42.141, 1561037082141
109, -17.14, -25.50, -23.49, -21.59, -20.81, -14.22, -26.55, -23.69, 0.000, 0.000, 0.000, 16:24:42.141, 1561037082141
110, -16.96, -25.64, -23.25, -21.73, -20.76, -14.15, -26.93, -24.01, 0.000, 0.000, 0.000, 16:24:42.141, 1561037082141
111, -16.90, -25.82, -23.11, -21.61, -20.76, -14.13, -27.02, -23.74, 0.000, 0.000, 0.000, 16:24:42.141, 1561037082141
112, -16.99, -25.64, -23.25, -21.48, -20.54, -14.06, -26.64, -23.94, 0.000, 0.000, 0.000, 16:24:42.141, 1561037082141
113, -17.05, -25.46, -23.02, -21.73, -20.54, -14.26, -26.80, -23.67, 0.000, 0.000, 0.000, 16:24:42.141, 1561037082141
114, -17.19, -25.39, -23.13, -21.52, -20.59, -14.22, -27.11, -23.60, 0.000, 0.000, 0.000, 16:24:42.141, 1561037082141
115, -17.12, -25.50, -23.36, -21.50, -20.65, -14.24, -27.02, -23.74, 0.000, 0.000, 0.000, 16:24:42.141, 1561037082141
116, -17.05, -25.62, -23.34, -21.68, -20.76, -14.13, -26.71, -23.69, 0.000, 0.000, 0.000, 16:24:42.141, 1561037082141
117, -17.23, -25.53, -23.42, -21.95, -20.74, -13.97, -26.91, -23.69, 0.000, 0.000, 0.000, 16:24:42.141, 1561037082141
118, -17.14, -25.59, -23.29, -21.79, -20.27, -14.01, -26.96, -23.89, 0.012, 0.050, -1.028, 16:24:42.141, 1561037082141
119, -17.08, -25.62, -23.34, -21.48, -20.32, -14.26, -26.76, -23.85, 0.000, 0.000, 0.000, 16:24:42.200, 1561037082200
120, -17.30, -25.62, -23.49, -21.21, -20.63, -13.90, -26.80, -23.83, 0.000, 0.000, 0.000, 16:24:42.200, 1561037082200
121, -17.30, -25.57, -23.42, -21.39, -20.70, -14.04, -26.84, -23.80, 0.000, 0.000, 0.000, 16:24:42.200, 1561037082200
122, -17.23, -25.59, -23.22, -21.48, -20.47, -14.10, -26.76, -23.67, 0.000, 0.000, 0.000, 16:24:42.200, 1561037082200
123, -17.26, -25.53, -23.27, -21.73, -20.36, -14.13, -26.87, -23.56, 0.000, 0.000, 0.000, 16:24:42.200, 1561037082200
124, -17.14, -25.35, -23.22, -21.82, -20.43, -14.28, -26.87, -23.49, 0.000, 0.000, 0.000, 16:24:42.200, 1561037082200
125, -17.14, -25.53, -23.38, -21.66, -20.41, -14.01, -26.73, -23.56, 0.000, 0.000, 0.000, 16:24:42.200, 1561037082200
126, -17.23, -25.55, -23.54, -21.52, -20.41, -13.97, -26.91, -23.83, 0.000, 0.000, 0.000, 16:24:42.200, 1561037082200
127, -17.17, -25.53, -23.27, -21.68, -20.59, -13.90, -26.73, -23.67, 0.016, 0.048, -1.028, 16:24:42.200, 1561037082200
128, -16.94, -25.55, -23.02, -21.73, -20.59, -13.93, -26.80, -23.74, 0.000, 0.000, 0.000, 16:24:42.200, 1561037082200
129, -17.01, -25.35, -23.02, -21.68, -20.61, -14.19, -26.78, -23.49, 0.000, 0.000, 0.000, 16:24:42.200, 1561037082200
130, -16.99, -25.50, -23.04, -21.59, -20.54, -14.10, -26.91, -23.58, 0.000, 0.000, 0.000, 16:24:42.200, 1561037082200
131, -16.90, -25.75, -23.40, -21.66, -20.38, -14.24, -26.67, -23.78, 0.000, 0.000, 0.000, 16:24:42.200, 1561037082200
132, -16.90, -25.64, -23.29, -21.61, -20.59, -14.35, -26.76, -23.94, 0.000, 0.000, 0.000, 16:24:42.200, 1561037082200
133, -17.14, -25.41, -22.98, -21.77, -20.59, -14.22, -26.80, -23.72, 0.000, 0.000, 0.000, 16:24:42.200, 1561037082200
134, -17.08, -25.39, -23.16, -21.57, -20.50, -14.19, -26.80, -23.69, 0.000, 0.000, 0.000, 16:24:42.260, 1561037082260
135, -17.01, -25.37, -23.20, -21.75, -20.59, -14.10, -26.91, -23.67, 0.000, 0.000, 0.000, 16:24:42.261, 1561037082261
136, -17.08, -25.35, -23.34, -21.68, -20.59, -14.15, -26.76, -23.60, 0.000, 0.000, 0.000, 16:24:42.261, 1561037082261
137, -17.19, -25.66, -23.11, -21.68, -20.23, -14.24, -26.87, -23.78, 0.018, 0.050, -1.032, 16:24:42.261, 1561037082261
138, -17.14, -25.68, -23.13, -21.73, -20.43, -14.13, -26.76, -23.67, 0.000, 0.000, 0.000, 16:24:42.261, 1561037082261
139, -17.19, -25.57, -23.18, -21.82, -20.50, -13.88, -26.73, -23.60, 0.000, 0.000, 0.000, 16:24:42.261, 1561037082261
140, -17.34, -25.48, -23.45, -21.95, -20.43, -14.15, -26.73, -23.65, 0.000, 0.000, 0.000, 16:24:42.261, 1561037082261
141, -17.10, -25.48, -23.34, -21.70, -20.38, -14.28, -26.80, -23.67, 0.000, 0.000, 0.000, 16:24:42.261, 1561037082261
142, -17.23, -25.55, -23.47, -21.70, -20.50, -14.13, -27.09, -23.78, 0.000, 0.000, 0.000, 16:24:42.261, 1561037082261
143, -17.26, -25.75, -23.22, -21.52, -20.59, -14.22, -26.91, -23.72, 0.000, 0.000, 0.000, 16:24:42.261, 1561037082261
144, -17.19, -25.59, -23.29, -21.50, -20.32, -13.95, -26.80, -23.65, 0.000, 0.000, 0.000, 16:24:42.261, 1561037082261
145, -17.30, -25.64, -23.25, -21.61, -20.41, -13.88, -26.64, -23.51, 0.000, 0.000, 0.000, 16:24:42.261, 1561037082261
146, -16.85, -25.66, -23.31, -21.70, -20.52, -14.01, -27.02, -23.85, 0.000, 0.000, 0.000, 16:24:42.261, 1561037082261
147, -17.05, -25.57, -23.25, -21.68, -20.63, -14.10, -26.67, -23.72, 0.020, 0.050, -1.032, 16:24:42.261, 1561037082261
148, -17.14, -25.64, -23.22, -21.52, -20.43, -14.26, -26.62, -23.76, 0.000, 0.000, 0.000, 16:24:42.261, 1561037082261
149, -17.37, -25.46, -23.27, -21.66, -20.41, -14.51, -26.73, -23.56, 0.000, 0.000, 0.000, 16:24:42.320, 1561037082320
150, -17.28, -25.37, -23.27, -21.77, -20.54, -14.55, -26.69, -23.69, 0.000, 0.000, 0.000, 16:24:42.321, 1561037082321
151, -16.90, -25.28, -23.02, -21.84, -20.56, -14.26, -26.73, -23.72, 0.000, 0.000, 0.000, 16:24:42.321, 1561037082321
152, -16.85, -25.48, -23.11, -21.66, -20.43, -14.10, -26.96, -23.67, 0.000, 0.000, 0.000, 16:24:42.321, 1561037082321
153, -16.90, -25.53, -23.38, -21.66, -20.50, -13.97, -26.78, -23.72, 0.000, 0.000, 0.000, 16:24:42.321, 1561037082321
154, -17.01, -25.50, -23.47, -21.88, -20.45, -14.01, -26.84, -23.78, 0.000, 0.000, 0.000, 16:24:42.321, 1561037082321
155, -17.23, -25.68, -23.56, -21.66, -20.61, -14.10, -26.82, -23.51, 0.000, 0.000, 0.000, 16:24:42.321, 1561037082321
156, -17.30, -25.57, -23.22, -21.61, -20.65, -14.19, -26.62, -23.60, 0.000, 0.000, 0.000, 16:24:42.321, 1561037082321
157, -17.28, -25.68, -23.18, -21.59, -20.59, -14.01, -26.60, -23.85, 0.016, 0.050, -1.032, 16:24:42.321, 1561037082321
158, -17.01, -25.53, -23.38, -21.66, -20.61, -14.06, -26.58, -23.51, 0.000, 0.000, 0.000, 16:24:42.321, 1561037082321
159, -17.03, -25.44, -23.29, -21.73, -20.54, -14.13, -26.87, -23.76, 0.000, 0.000, 0.000, 16:24:42.321, 1561037082321
160, -17.34, -25.50, -23.18, -21.55, -20.52, -14.15, -26.96, -23.83, 0.000, 0.000, 0.000, 16:24:42.321, 1561037082321
161, -17.10, -25.53, -23.34, -21.70, -20.43, -14.22, -27.07, -23.83, 0.000, 0.000, 0.000, 16:24:42.321, 1561037082321
162, -16.96, -25.39, -23.45, -21.61, -20.74, -14.13, -26.91, -23.65, 0.000, 0.000, 0.000, 16:24:42.321, 1561037082321
163, -17.08, -25.41, -23.27, -21.82, -20.72, -14.06, -26.82, -23.63, 0.000, 0.000, 0.000, 16:24:42.321, 1561037082321
0, 6701.08, 8854.00, 18896.01, 21654.73, 9141.39, 13197.05, 4616.17, 7217.06, 0.010, 0.024, -0.516, 16:24:55.775, 1561037095775
1, 6721.50, 8861.53, 18912.84, 21654.39, 9172.62, 13217.59, 4625.89, 7234.54, 0.000, 0.000, 0.000, 16:24:55.835, 1561037095835
2, 6720.16, 8860.54, 18920.44, 21654.12, 9177.69, 13219.69, 4626.41, 7234.19, 0.000, 0.000, 0.000, 16:24:55.835, 1561037095835
3, 6700.58, 8853.37, 18906.20, 21652.27, 9152.12, 13200.31, 4622.88, 7217.40, 0.000, 0.000, 0.000, 16:24:55.836, 1561037095836
4, 6678.03, 8842.33, 18893.35, 21644.00, 9121.01, 13175.41, 4613.35, 7200.35, 0.000, 0.000, 0.000, 16:24:55.836, 1561037095836
5, 6695.53, 8852.65, 18908.28, 21649.43, 9134.44, 13188.24, 4620.24, 7215.79, 0.000, 0.000, 0.000, 16:24:55.836, 1561037095836
6, 6722.51, 8860.70, 18926.03, 21651.20, 9164.68, 13204.43, 4623.79, 7229.63, 0.000, 0.000, 0.000, 16:24:55.836, 1561037095836
7, 6721.10, 8855.13, 18934.86, 21646.63, 9170.43, 13202.37, 4619.19, 7228.71, 0.014, 0.034, -0.776, 16:24:55.836, 1561037095836
8, 6697.52, 8847.67, 18909.78, 21640.87, 9144.19, 13181.54, 4610.67, 7212.19, 0.000, 0.000, 0.000, 16:24:55.836, 1561037095836
9, 6681.83, 8845.95, 18894.82, 21639.04, 9115.67, 13164.57, 4603.25, 7202.13, 0.000, 0.000, 0.000, 16:24:55.836, 1561037095836
10, 6702.64, 8863.43, 18911.12, 21642.63, 9122.69, 13171.73, 4598.51, 7207.72, 0.000, 0.000, 0.000, 16:24:55.836, 1561037095836
11, 6723.20, 8868.70, 18917.15, 21640.58, 9151.32, 13186.21, 4594.76, 7217.67, 0.000, 0.000, 0.000, 16:24:55.836, 1561037095836
12, 6713.23, 8849.23, 18908.81, 21639.04, 9159.97, 13189.90, 4597.84, 7220.84, 0.000, 0.000, 0.000, 16:24:55.836, 1561037095836
13, 6694.66, 8836.25, 18899.47, 21639.55, 9139.83, 13177.78, 4598.13, 7210.99, 0.000, 0.000, 0.000, 16:24:55.836, 1561037095836
14, 6691.78, 8839.91, 18894.64, 21640.87, 9116.23, 13164.35, 4591.56, 7197.33, 0.000, 0.000, 0.000, 16:24:55.836, 1561037095836
15, 6703.87, 8844.38, 18904.46, 21643.33, 9127.02, 13172.04, 4593.48, 7203.54, 0.000, 0.000, 0.000, 16:24:55.836, 1561037095836
16, 6722.80, 8856.39, 18919.68, 21641.29, 9155.92, 13188.51, 4601.33, 7214.96, 0.000, 0.000, 0.000, 16:24:55.895, 1561037095895
17, 6724.28, 8852.48, 18922.25, 21645.79, 9164.89, 13192.54, 4603.88, 7215.55, 0.014, 0.042, -0.904, 16:24:55.895, 1561037095895
18, 6710.80, 8844.29, 18909.78, 21644.36, 9143.32, 13179.46, 4602.58, 7201.80, 0.000, 0.000, 0.000, 16:24:55.895, 1561037095895
19, 6695.02, 8842.53, 18890.20, 21642.08, 9123.04, 13172.20, 4601.87, 7195.94, 0.000, 0.000, 0.000, 16:24:55.895, 1561037095895
20, 6703.91, 8850.69, 18893.95, 21643.66, 9130.89, 13181.16, 4604.77, 7204.91, 0.000, 0.000, 0.000, 16:24:55.895, 1561037095895
21, 6716.01, 8843.62, 18914.45, 21637.40, 9163.08, 13198.30, 4610.36, 7218.63, 0.000, 0.000, 0.000, 16:24:55.895, 1561037095895
22, 6717.06, 8835.24, 18917.38, 21634.39, 9173.45, 13201.16, 4608.01, 7218.92, 0.000, 0.000, 0.000, 16:24:55.895, 1561037095895
23, 6705.19, 8840.23, 18903.85, 21640.24, 9154.58, 13194.48, 4606.98, 7212.82, 0.000, 0.000, 0.000, 16:24:55.895, 1561037095895
24, 6700.00, 8844.09, 18900.46, 21649.23, 9138.35, 13190.08, 4613.44, 7212.80, 0.000, 0.000, 0.000, 16:24:55.895, 1561037095895
25, 6703.73, 8839.44, 18906.78, 21640.53, 9146.36, 13197.94, 4616.86, 7223.21, 0.000, 0.000, 0.000, 16:24:55.895, 1561037095895
26, 6726.56, 8847.80, 18928.48, 21641.14, 9173.58, 13217.50, 4620.26, 7240.60, 0.000, 0.000, 0.000, 16:24:55.895, 1561037095895
27, 6723.05, 8838.89, 18923.46, 21635.13, 9183.19, 13218.62, 4617.04, 7241.61, 0.014, 0.050, -0.964, 16:24:55.895, 1561037095895
28, 6704.76, 8835.22, 18902.09, 21633.43, 9161.73, 13199.98, 4613.20, 7227.12, 0.000, 0.000, 0.000, 16:24:55.895, 1561037095895
29, 6691.37, 8835.60, 18895.52, 21634.39, 9140.57, 13186.95, 4613.56, 7220.71, 0.000, 0.000, 0.000, 16:24:55.895, 1561037095895
30, 6702.53, 8838.64, 18906.51, 21632.40, 9145.95, 13192.36, 4612.93, 7225.49, 0.000, 0.000, 0.000, 16:24:55.896, 1561037095896
31, 6724.01, 8845.66, 18917.71, 21633.27, 9174.50, 13208.85, 4614.25, 7236.85, 0.000, 0.000, 0.000, 16:24:55.954, 1561037095954
32, 6727.54, 8845.55, 18919.70, 21632.53, 9182.14, 13208.29, 4611.92, 7230.32, 0.000, 0.000, 0.000, 16:24:55.954, 1561037095954
33, 6713.99, 8846.66, 18910.22, 21634.12, 9160.48, 13191.26, 4609.58, 7213.27, 0.000, 0.000, 0.000, 16:24:55.954, 1561037095954
34, 6696.43, 8838.97, 18892.90, 21632.64, 9136.01, 13174.88, 4610.78, 7200.90, 0.000, 0.000, 0.000, 16:24:55.955, 1561037095955
35, 6707.02, 8839.53, 18906.87, 21634.45, 9142.02, 13180.40, 4615.17, 7202.54, 0.000, 0.000, 0.000, 16:24:55.955, 1561037095955
36, 6724.34, 8844.21, 18924.19, 21632.49, 9169.94, 13198.10, 4616.15, 7212.84, 0.018, 0.052, -0.998, 16:24:55.955, 1561037095955
37, 6727.43, 8842.98, 18929.80, 21630.65, 9177.94, 13198.86, 4607.66, 7207.12, 0.000, 0.000, 0.000, 16:24:55.955, 1561037095955
38, 6709.99, 8836.69, 18913.67, 21624.71, 9149.80, 13176.55, 4593.98, 7186.11, 0.000, 0.000, 0.000, 16:24:55.955, 1561037095955
39, 6705.61, 8844.29, 18914.36, 21634.95, 9133.95, 13170.30, 4598.38, 7186.26, 0.000, 0.000, 0.000, 16:24:55.955, 1561037095955
40, 6715.98, 8847.58, 18927.05, 21635.68, 9142.85, 13177.87, 4601.17, 7193.64, 0.000, 0.000, 0.000, 16:24:55.955, 1561037095955
41, 6735.79, 8856.14, 18944.13, 21639.68, 9171.52, 13194.06, 4606.56, 7206.36, 0.000, 0.000, 0.000, 16:24:55.955, 1561037095955
42, 6737.51, 8855.49, 18939.66, 21639.55, 9178.30, 13195.15, 4605.89, 7208.01, 0.000, 0.000, 0.000, 16:24:55.955, 1561037095955
43, 6718.67, 8852.05, 18915.34, 21639.48, 9152.79, 13179.71, 4598.56, 7195.43, 0.000, 0.000, 0.000, 16:24:55.955, 1561037095955
44, 6708.83, 8856.43, 18910.22, 21643.28, 9135.34, 13171.95, 4596.75, 7190.20, 0.000, 0.000, 0.000, 16:24:55.955, 1561037095955
45, 6711.85, 8844.43, 18916.97, 21636.80, 9138.87, 13176.17, 4594.11, 7192.63, 0.000, 0.000, 0.000, 16:24:55.955, 1561037095955
46, 6726.15, 8842.93, 18926.99, 21635.59, 9159.54, 13190.57, 4590.13, 7199.56, 0.018, 0.050, -1.020, 16:24:56.015, 1561037096015
47, 6733.31, 8853.50, 18931.99, 21640.78, 9169.83, 13199.82, 4592.19, 7204.03, 0.000, 0.000, 0.000, 16:24:56.015, 1561037096015
48, 6719.40, 8852.39, 18919.50, 21638.99, 9148.34, 13187.33, 4588.77, 7194.04, 0.000, 0.000, 0.000, 16:24:56.015, 1561037096015
49, 6702.98, 8847.49, 18898.49, 21638.63, 9121.88, 13172.35, 4585.80, 7185.44, 0.000, 0.000, 0.000, 16:24:56.015, 1561037096015
50, 6707.02, 8845.03, 18899.54, 21638.07, 9127.85, 13179.04, 4587.38, 7191.09, 0.000, 0.000, 0.000, 16:24:56.015, 1561037096015
51, 6732.46, 8858.58, 18927.08, 21642.34, 9163.41, 13204.70, 4602.74, 7218.70, 0.000, 0.000, 0.000, 16:24:56.015, 1561037096015
52, 6731.52, 8855.60, 18923.25, 21633.11, 9170.18, 13204.92, 4604.86, 7221.29, 0.000, 0.000, 0.000, 16:24:56.015, 1561037096015
53, 6716.12, 8852.88, 18912.28, 21638.77, 9150.22, 13191.44, 4605.35, 7210.92, 0.000, 0.000, 0.000, 16:24:56.015, 1561037096015
54, 6699.58, 8847.07, 18898.69, 21637.54, 9127.13, 13177.18, 4601.80, 7201.58, 0.000, 0.000, 0.000, 16:24:56.015, 1561037096015
55, 6712.65, 8848.97, 18898.13, 21636.76, 9130.26, 13182.01, 4601.29, 7205.62, 0.000, 0.000, 0.000, 16:24:56.015, 1561037096015
56, 6735.18, 8851.29, 18905.06, 21636.11, 9157.31, 13197.03, 4600.84, 7217.45, 0.016, 0.048, -1.028, 16:24:56.015, 1561037096015
57, 6735.14, 8851.98, 18910.47, 21632.20, 9171.66, 13198.84, 4597.22, 7217.13, 0.000, 0.000, 0.000, 16:24:56.015, 1561037096015
58, 6723.09, 8856.03, 18904.35, 21638.41, 9147.47, 13184.04, 4593.02, 7203.32, 0.000, 0.000, 0.000, 16:24:56.015, 1561037096015
59, 6706.08, 8853.37, 18898.71, 21635.57, 9125.28, 13168.84, 4590.06, 7194.02, 0.000, 0.000, 0.000, 16:24:56.015, 1561037096015
60, 6712.43, 8853.50, 18903.18, 21634.99, 9130.87, 13173.29, 4588.88, 7195.90, 0.000, 0.000, 0.000, 16:24:56.015, 1561037096015
61, 6734.56, 8855.22, 18922.14, 21635.62, 9156.75, 13188.18, 4588.81, 7205.78, 0.000, 0.000, 0.000, 16:24:56.075, 1561037096075
62, 6741.53, 8858.31, 18930.56, 21638.19, 9169.45, 13194.41, 4589.53, 7209.80, 0.000, 0.000, 0.000, 16:24:56.075, 1561037096075
63, 6719.25, 8854.24, 18913.40, 21632.15, 9148.14, 13177.00, 4585.08, 7196.12, 0.000, 0.000, 0.000, 16:24:56.075, 1561037096075
64, 6711.04, 8855.36, 18899.49, 21634.57, 9127.29, 13163.93, 4586.60, 7189.42, 0.000, 0.000, 0.000, 16:24:56.075, 1561037096075
65, 6718.44, 8854.87, 18905.80, 21633.60, 9131.72, 13166.88, 4588.05, 7194.36, 0.000, 0.000, 0.000, 16:24:56.075, 1561037096075
66, 6733.37, 8849.44, 18922.18, 21634.90, 9158.98, 13182.05, 4591.14, 7207.07, 0.018, 0.046, -1.038, 16:24:56.075, 1561037096075
67, 6735.83, 8853.75, 18929.24, 21638.61, 9174.74, 13190.19, 4597.82, 7212.64, 0.000, 0.000, 0.000, 16:24:56.075, 1561037096075
68, 6719.22, 8855.69, 18913.73, 21642.14, 9147.58, 13174.03, 4592.81, 7196.95, 0.000, 0.000, 0.000, 16:24:56.075, 1561037096075
69, 6701.99, 8854.73, 18910.00, 21644.49, 9127.09, 13164.48, 4595.36, 7191.09, 0.000, 0.000, 0.000, 16:24:56.075, 1561037096075
70, 6710.15, 8852.88, 18911.83, 21643.78, 9132.63, 13173.65, 4602.00, 7200.15, 0.000, 0.000, 0.000, 16:24:56.075, 1561037096075
71, 6733.15, 8858.91, 18922.63, 21643.01, 9162.05, 13194.88, 4600.50, 7211.14, 0.000, 0.000, 0.000, 16:24:56.075, 1561037096075
72, 6741.60, 8864.37, 18930.21, 21643.21, 9177.02, 13204.02, 4601.46, 7217.24, 0.000, 0.000, 0.000, 16:24:56.075, 1561037096075
73, 6728.52, 8863.81, 18909.80, 21646.57, 9151.05, 13190.86, 4600.17, 7206.90, 0.000, 0.000, 0.000, 16:24:56.075, 1561037096075
74, 6713.84, 8858.53, 18892.21, 21646.88, 9123.85, 13176.67, 4599.59, 7197.40, 0.000, 0.000, 0.000, 16:24:56.075, 1561037096075
75, 6719.54, 8858.40, 18909.31, 21648.31, 9131.31, 13184.69, 4600.37, 7205.69, 0.000, 0.000, 0.000, 16:24:56.076, 1561037096076
76, 6735.72, 8857.44, 18929.07, 21644.60, 9159.81, 13200.02, 4602.74, 7216.73, 0.016, 0.048, -1.036, 16:24:56.135, 1561037096135
77, 6741.71, 8858.69, 18933.54, 21645.05, 9176.17, 13204.76, 4602.87, 7222.94, 0.000, 0.000, 0.000, 16:24:56.135, 1561037096135
78, 6721.35, 8855.11, 18913.89, 21643.64, 9156.12, 13188.98, 4598.96, 7211.21, 0.000, 0.000, 0.000, 16:24:56.135, 1561037096135
79, 6704.34, 8848.34, 18902.40, 21637.27, 9133.12, 13175.48, 4598.71, 7204.66, 0.000, 0.000, 0.000, 16:24:56.135, 1561037096135
80, 6719.31, 8854.06, 18920.17, 21639.37, 9139.96, 13182.75, 4602.49, 7211.97, 0.000, 0.000, 0.000, 16:24:56.135, 1561037096135
81, 6734.40, 8857.35, 18928.75, 21637.47, 9162.78, 13193.14, 4602.13, 7219.79, 0.000, 0.000, 0.000, 16:24:56.135, 1561037096135
82, 6736.10, 8855.56, 18920.33, 21637.38, 9169.31, 13189.88, 4598.56, 7215.39, 0.000, 0.000, 0.000, 16:24:56.135, 1561037096135
83, 6728.03, 8862.85, 18913.78, 21646.23, 9158.38, 13184.13, 4604.48, 7212.89, 0.000, 0.000, 0.000, 16:24:56.135, 1561037096135
84, 6715.60, 8863.96, 18905.04, 21653.52, 9135.90, 13172.44, 4603.59, 7206.83, 0.000, 0.000, 0.000, 16:24:56.135, 1561037096135
85, 6719.58, 8858.73, 18910.89, 21649.81, 9139.18, 13175.08, 4603.21, 7209.22, 0.000, 0.000, 0.000, 16:24:56.136, 1561037096136
86, 6735.90, 8860.59, 18928.04, 21646.70, 9161.96, 13188.89, 4601.24, 7215.43, 0.016, 0.048, -1.036, 16:24:56.136, 1561037096136
87, 6748.37, 8867.52, 18940.76, 21648.76, 9178.72, 13196.58, 4600.91, 7222.79, 0.000, 0.000, 0.000, 16:24:56.136, 1561037096136
88, 6733.80, 8865.89, 18923.28, 21648.40, 9160.24, 13183.66, 4599.14, 7216.82, 0.000, 0.000, 0.000, 16:24:56.136, 1561037096136
89, 6711.78, 8862.60, 18910.89, 21641.79, 9133.64, 13166.32, 4594.36, 7204.95, 0.000, 0.000, 0.000, 16:24:56.136, 1561037096136
90, 6718.17, 8860.52, 18917.91, 21646.41, 9142.67, 13177.27, 4600.53, 7214.65, 0.000, 0.000, 0.000, 16:24:56.136, 1561037096136
91, 6737.13, 8862.94, 18932.57, 21648.78, 9171.66, 13196.42, 4600.35, 7226.88, 0.000, 0.000, 0.000, 16:24:56.196, 1561037096196
92, 6742.69, 8864.79, 18938.05, 21646.84, 9180.82, 13200.90, 4594.47, 7226.05, 0.000, 0.000, 0.000, 16:24:56.196, 1561037096196
93, 6725.59, 8858.31, 18922.20, 21645.29, 9153.73, 13182.88, 4588.50, 7209.82, 0.000, 0.000, 0.000, 16:24:56.196, 1561037096196
94, 6709.68, 8855.07, 18915.10, 21647.60, 9122.66, 13166.56, 4588.92, 7197.02, 0.000, 0.000, 0.000, 16:24:56.196, 1561037096196
95, 6712.18, 8852.07, 18926.03, 21646.63, 9127.09, 13173.67, 4591.27, 7202.31, 0.000, 0.000, 0.000, 16:24:56.196, 1561037096196
96, 6725.35, 8846.60, 18933.29, 21639.24, 9146.40, 13184.91, 4589.24, 7211.61, 0.016, 0.050, -1.034, 16:24:56.196, 1561037096196
97, 6736.79, 8854.51, 18932.93, 21644.51, 9163.72, 13200.40, 4597.75, 7225.60, 0.000, 0.000, 0.000, 16:24:56.196, 1561037096196
98, 6725.44, 8858.38, 18917.64, 21646.75, 9148.73, 13193.61, 4599.54, 7218.79, 0.000, 0.000, 0.000, 16:24:56.197, 1561037096197
99, 6705.28, 8856.45, 18896.59, 21645.67, 9123.56, 13180.04, 4594.20, 7207.16, 0.000, 0.000, 0.000, 16:24:56.197, 1561037096197
100, 6713.23, 8856.83, 18897.35, 21646.50, 9125.03, 13185.70, 4597.51, 7213.87, 0.000, 0.000, 0.000, 16:24:56.197, 1561037096197
101, 6732.32, 8859.07, 18916.37, 21647.20, 9152.88, 13203.80, 4601.84, 7227.79, 0.000, 0.000, 0.000, 16:24:56.197, 1561037096197
102, 6736.03, 8856.72, 18921.62, 21642.93, 9165.47, 13209.50, 4599.88, 7231.73, 0.000, 0.000, 0.000, 16:24:56.197, 1561037096197
103, 6721.88, 8853.50, 18916.55, 21639.01, 9143.34, 13192.25, 4597.55, 7220.62, 0.000, 0.000, 0.000, 16:24:56.197, 1561037096197
104, 6710.24, 8851.25, 18904.30, 21638.23, 9117.28, 13176.17, 4600.41, 7212.08, 0.000, 0.000, 0.000, 16:24:56.197, 1561037096197
105, 6718.69, 8857.86, 18906.29, 21643.10, 9120.99, 13182.86, 4603.21, 7218.38, 0.000, 0.000, 0.000, 16:24:56.197, 1561037096197
106, 6731.92, 8858.73, 18918.36, 21638.63, 9139.45, 13192.63, 4604.39, 7225.94, 0.016, 0.052, -1.042, 16:24:56.255, 1561037096255
107, 6735.27, 8857.46, 18922.34, 21635.57, 9154.51, 13194.64, 4606.38, 7228.08, 0.000, 0.000, 0.000, 16:24:56.255, 1561037096255
108, 6723.76, 8858.64, 18908.03, 21642.75, 9143.34, 13183.26, 4608.95, 7220.02, 0.000, 0.000, 0.000, 16:24:56.255, 1561037096255
109, 6707.36, 8853.15, 18893.53, 21643.48, 9117.88, 13167.03, 4603.74, 7209.58, 0.000, 0.000, 0.000, 16:24:56.255, 1561037096255
110, 6714.33, 8851.20, 18902.06, 21642.95, 9121.21, 13170.72, 4601.91, 7215.43, 0.000, 0.000, 0.000, 16:24:56.255, 1561037096255
111, 6725.64, 8854.35, 18915.79, 21638.28, 9145.95, 13181.40, 4597.06, 7220.78, 0.000, 0.000, 0.000, 16:24:56.255, 1561037096255
112, 6732.03, 8856.05, 18910.96, 21636.62, 9157.40, 13185.90, 4595.99, 7224.42, 0.000, 0.000, 0.000, 16:24:56.255, 1561037096255
113, 6727.43, 8858.29, 18902.62, 21646.84, 9146.38, 13183.97, 4602.51, 7222.61, 0.000, 0.000, 0.000, 16:24:56.255, 1561037096255
114, 6711.36, 8852.61, 18888.97, 21647.13, 9116.45, 13166.63, 4600.01, 7207.41, 0.000, 0.000, 0.000, 16:24:56.255, 1561037096255
115, 6719.36, 8853.06, 18896.63, 21645.96, 9120.05, 13170.36, 4606.90, 7212.21, 0.000, 0.000, 0.000, 16:24:56.255, 1561037096255
116, 6737.35, 8855.51, 18909.26, 21642.25, 9145.84, 13186.12, 4610.25, 7224.17, 0.018, 0.054, -1.036, 16:24:56.255, 1561037096255
117, 6741.62, 8857.64, 18910.76, 21641.65, 9160.33, 13193.30, 4606.16, 7226.79, 0.000, 0.000, 0.000, 16:24:56.255, 1561037096255
118, 6721.08, 8850.69, 18893.59, 21640.02, 9137.75, 13177.67, 4600.48, 7211.07, 0.000, 0.000, 0.000, 16:24:56.255, 1561037096255
119, 6704.16, 8845.72, 18882.46, 21644.18, 9111.89, 13162.90, 4603.25, 7203.92, 0.000, 0.000, 0.000, 16:24:56.255, 1561037096255
120, 6716.70, 8854.11, 18898.78, 21650.48, 9124.67, 13174.52, 4608.21, 7212.91, 0.000, 0.000, 0.000, 16:24:56.255, 1561037096255
121, 6736.39, 8858.76, 18906.89, 21652.02, 9151.88, 13194.52, 4611.52, 7226.72, 0.000, 0.000, 0.000, 16:24:56.314, 1561037096314
122, 6746.47, 8864.84, 18907.21, 21659.87, 9167.86, 13206.48, 4612.42, 7234.28, 0.000, 0.000, 0.000, 16:24:56.314, 1561037096314
123, 6730.07, 8863.65, 18894.29, 21663.33, 9149.84, 13196.60, 4610.47, 7224.02, 0.000, 0.000, 0.000, 16:24:56.315, 1561037096315
124, 6706.42, 8854.06, 18879.18, 21657.39, 9118.46, 13179.95, 4606.02, 7210.58, 0.000, 0.000, 0.000, 16:24:56.315, 1561037096315
125, 6709.23, 8851.25, 18886.42, 21653.90, 9116.67, 13183.57, 4604.68, 7216.95, 0.000, 0.000, 0.000, 16:24:56.315, 1561037096315
126, 6735.83, 8862.91, 18908.86, 21658.55, 9155.77, 13208.96, 4618.23, 7240.38, 0.020, 0.052, -1.028, 16:24:56.315, 1561037096315
127, 6734.09, 8856.23, 18898.15, 21648.78, 9162.05, 13207.38, 4613.60, 7239.46, 0.000, 0.000, 0.000, 16:24:56.315, 1561037096315
128, 6713.77, 8852.48, 18881.90, 21645.41, 9139.99, 13190.75, 4603.43, 7227.39, 0.000, 0.000, 0.000, 16:24:56.315, 1561037096315
129, 6705.50, 8853.50, 18876.29, 21648.65, 9116.25, 13176.31, 4598.89, 7220.06, 0.000, 0.000, 0.000, 16:24:56.315, 1561037096315
130, 6710.64, 8851.78, 18889.97, 21646.39, 9121.01, 13177.20, 4601.53, 7221.83, 0.000, 0.000, 0.000, 16:24:56.315, 1561037096315
131, 6732.17, 8858.22, 18914.94, 21648.89, 9147.99, 13191.42, 4606.02, 7230.99, 0.000, 0.000, 0.000, 16:24:56.315, 1561037096315
132, 6735.12, 8853.66, 18918.92, 21641.79, 9163.86, 13193.59, 4603.70, 7229.25, 0.000, 0.000, 0.000, 16:24:56.315, 1561037096315
133, 6722.85, 8857.19, 18908.73, 21645.45, 9153.67, 13182.61, 4607.72, 7222.65, 0.000, 0.000, 0.000, 16:24:56.315, 1561037096315
134, 6706.93, 8855.09, 18892.23, 21647.24, 9131.11, 13166.43, 4606.96, 7210.78, 0.000, 0.000, 0.000, 16:24:56.315, 1561037096315
135, 6711.09, 8847.45, 18894.20, 21647.11, 9133.91, 13169.07, 4610.56, 7215.03, 0.000, 0.000, 0.000, 16:24:56.315, 1561037096315
136, 6727.03, 8848.76, 18903.23, 21644.06, 9158.36, 13181.34, 4614.05, 7228.29, 0.018, 0.050, -1.034, 16:24:56.375, 1561037096375
137, 6731.32, 8847.89, 18904.95, 21643.39, 9169.98, 13184.13, 4610.07, 7227.95, 0.000, 0.000, 0.000, 16:24:56.375, 1561037096375
138, 6717.66, 8847.85, 18898.87, 21647.87, 9155.41, 13174.86, 4610.29, 7220.48, 0.000, 0.000, 0.000, 16:24:56.375, 1561037096375
139, 6702.68, 8843.49, 18888.86, 21645.52, 9129.44, 13159.83, 4610.45, 7211.21, 0.000, 0.000, 0.000, 16:24:56.375, 1561037096375
140, 6706.24, 8840.65, 18891.94, 21643.01, 9129.68, 13164.28, 4612.01, 7213.31, 0.000, 0.000, 0.000, 16:24:56.375, 1561037096375
141, 6725.01, 8847.96, 18918.05, 21646.21, 9160.33, 13185.76, 4617.27, 7228.62, 0.000, 0.000, 0.000, 16:24:56.375, 1561037096375
142, 6730.76, 8849.46, 18924.35, 21644.98, 9176.08, 13191.73, 4614.54, 7231.91, 0.000, 0.000, 0.000, 16:24:56.375, 1561037096375
143, 6725.53, 8855.54, 18914.78, 21655.76, 9161.40, 13183.91, 4610.92, 7225.13, 0.000, 0.000, 0.000, 16:24:56.375, 1561037096375
144, 6706.84, 8853.62, 18899.20, 21656.92, 9136.01, 13168.28, 4603.90, 7212.66, 0.000, 0.000, 0.000, 16:24:56.375, 1561037096375
145, 6702.37, 8844.43, 18887.36, 21650.59, 9128.43, 13165.58, 4596.23, 7208.75, 0.018, 0.048, -1.032, 16:24:56.375, 1561037096375
146, 6730.85, 8858.78, 18909.26, 21661.66, 9164.13, 13191.82, 4609.15, 7230.25, 0.000, 0.000, 0.000, 16:24:56.375, 1561037096375
147, 6737.06, 8864.52, 18916.48, 21663.42, 9180.08, 13202.48, 4610.87, 7237.67, 0.000, 0.000, 0.000, 16:24:56.375, 1561037096375
148, 6717.03, 8859.72, 18895.96, 21659.44, 9159.10, 13190.23, 4607.23, 7226.07, 0.000, 0.000, 0.000, 16:24:56.375, 1561037096375
149, 6701.75, 8855.72, 18890.64, 21661.41, 9133.57, 13177.76, 4610.25, 7217.22, 0.000, 0.000, 0.000, 16:24:56.375, 1561037096375
150, 6703.35, 8850.89, 18898.73, 21657.90, 9130.04, 13180.49, 4609.47, 7219.64, 0.000, 0.000, 0.000, 16:24:56.375, 1561037096375
151, 6718.69, 8848.59, 18909.31, 21649.43, 9155.39, 13196.60, 4611.41, 7229.47, 0.000, 0.000, 0.000, 16:24:56.375, 1561037096375
152, 6722.20, 8844.81, 18905.51, 21643.62, 9167.25, 13201.95, 4610.49, 7233.52, 0.000, 0.000, 0.000, 16:24:56.436, 1561037096436
153, 6711.83, 8851.74, 18889.03, 21645.21, 9151.99, 13193.14, 4610.34, 7224.13, 0.000, 0.000, 0.000, 16:24:56.436, 1561037096436
154, 6701.16, 8853.37, 18884.05, 21647.26, 9130.11, 13177.74, 4613.00, 7213.87, 0.000, 0.000, 0.000, 16:24:56.436, 1561037096436
155, 6703.62, 8844.34, 18899.88, 21646.19, 9137.66, 13179.64, 4615.03, 7221.60, 0.020, 0.050, -1.026, 16:24:56.436, 1561037096436
156, 6718.91, 8847.13, 18914.92, 21648.45, 9167.01, 13194.55, 4615.39, 7236.11, 0.000, 0.000, 0.000, 16:24:56.436, 1561037096436
157, 6729.80, 8852.83, 18916.06, 21649.65, 9185.58, 13200.22, 4613.31, 7242.28, 0.000, 0.000, 0.000, 16:24:56.436, 1561037096436
158, 6716.23, 8851.20, 18895.20, 21646.63, 9168.73, 13184.53, 4609.31, 7231.19, 0.000, 0.000, 0.000, 16:24:56.436, 1561037096436
159, 6695.87, 8843.62, 18872.61, 21640.58, 9136.07, 13161.62, 4602.27, 7211.81, 0.000, 0.000, 0.000, 16:24:56.436, 1561037096436
160, 6699.06, 8841.50, 18880.36, 21639.97, 9135.18, 13163.25, 4606.18, 7219.35, 0.000, 0.000, 0.000, 16:24:56.436, 1561037096436
161, 6721.17, 8853.88, 18907.34, 21644.91, 9165.82, 13183.64, 4617.76, 7239.91, 0.000, 0.000, 0.000, 16:24:56.436, 1561037096436
162, 6729.91, 8855.89, 18909.31, 21638.03, 9180.20, 13186.61, 4616.08, 7241.21, 0.000, 0.000, 0.000, 16:24:56.436, 1561037096436
163, 6719.40, 8852.39, 18888.32, 21637.40, 9158.74, 13171.86, 4613.15, 7227.62, 0.000, 0.000, 0.000, 16:24:56.436, 1561037096436
164, 6694.19, 8839.87, 18872.31, 21632.96, 9126.66, 13152.06, 4606.49, 7210.67, 0.000, 0.000, 0.000, 16:24:56.436, 1561037096436
165, 6701.70, 8844.16, 18877.52, 21640.18, 9128.63, 13161.51, 4613.76, 7218.41, 0.020, 0.046, -1.026, 16:24:56.436, 1561037096436
166, 6720.86, 8848.12, 18896.16, 21638.59, 9153.55, 13176.78, 4621.42, 7231.33, 0.000, 0.000, 0.000, 16:24:56.437, 1561037096437
167, 6727.54, 8846.73, 18906.13, 21637.43, 9170.03, 13180.55, 4619.75, 7235.15, 0.000, 0.000, 0.000, 16:24:56.496, 1561037096496
168, 6712.43, 8846.08, 18895.18, 21638.72, 9154.83, 13169.63, 4618.50, 7225.07, 0.000, 0.000, 0.000, 16:24:56.496, 1561037096496
169, 6699.40, 8846.98, 18880.70, 21645.45, 9126.60, 13157.26, 4616.93, 7213.49, 0.000, 0.000, 0.000, 16:24:56.496, 1561037096496
170, 6705.14, 8845.61, 18880.05, 21646.63, 9121.77, 13157.11, 4619.88, 7214.23, 0.000, 0.000, 0.000, 16:24:56.496, 1561037096496
171, 6726.62, 8849.12, 18894.35, 21643.10, 9147.25, 13173.80, 4620.33, 7225.63, 0.000, 0.000, 0.000, 16:24:56.496, 1561037096496
172, 6737.35, 8853.06, 18906.87, 21641.32, 9163.19, 13183.97, 4620.28, 7232.00, 0.000, 0.000, 0.000, 16:24:56.496, 1561037096496
173, 6718.40, 8848.52, 18890.42, 21635.77, 9142.18, 13170.59, 4608.73, 7215.55, 0.000, 0.000, 0.000, 16:24:56.497, 1561037096497
174, 6704.14, 8850.53, 18880.92, 21644.11, 9118.97, 13160.10, 4608.13, 7206.78, 0.000, 0.000, 0.000, 16:24:56.497, 1561037096497
175, 6714.11, 8849.86, 18886.51, 21653.97, 9123.22, 13171.21, 4616.55, 7216.10, 0.022, 0.054, -1.036, 16:24:56.497, 1561037096497
176, 6728.41, 8846.66, 18902.04, 21648.04, 9148.66, 13187.69, 4621.67, 7227.84, 0.000, 0.000, 0.000, 16:24:56.497, 1561037096497
177, 6728.39, 8848.50, 18895.94, 21644.85, 9165.13, 13197.16, 4624.60, 7234.45, 0.000, 0.000, 0.000, 16:24:56.497, 1561037096497
178, 6713.52, 8849.52, 18879.33, 21645.00, 9150.31, 13186.84, 4616.10, 7223.12, 0.000, 0.000, 0.000, 16:24:56.497, 1561037096497
179, 6697.68, 8846.26, 18864.40, 21643.08, 9123.42, 13170.00, 4610.70, 7209.38, 0.000, 0.000, 0.000, 16:24:56.497, 1561037096497
180, 6698.88, 8844.32, 18870.93, 21638.07, 9127.31, 13170.34, 4612.93, 7211.68, 0.000, 0.000, 0.000, 16:24:56.497, 1561037096497
181, 6715.76, 8848.18, 18898.42, 21636.80, 9156.08, 13183.26, 4616.91, 7223.06, 0.000, 0.000, 0.000, 16:24:56.497, 1561037096497
182, 6726.11, 8848.83, 18902.78, 21633.72, 9171.68, 13186.32, 4616.62, 7226.56, 0.000, 0.000, 0.000, 16:24:56.555, 1561037096555
183, 6712.25, 8845.75, 18887.18, 21636.02, 9155.56, 13170.83, 4613.35, 7217.85, 0.000, 0.000, 0.000, 16:24:56.555, 1561037096555
184, 6691.73, 8838.71, 18866.99, 21634.39, 9124.50, 13150.51, 4610.76, 7200.73, 0.000, 0.000, 0.000, 16:24:56.555, 1561037096555
185, 6702.39, 8839.71, 18878.26, 21637.29, 9126.11, 13156.19, 4618.56, 7206.72, 0.020, 0.050, -1.040, 16:24:56.555, 1561037096555
186, 6722.60, 8843.24, 18889.93, 21636.89, 9152.28, 13169.98, 4620.73, 7221.69, 0.000, 0.000, 0.000, 16:24:56.555, 1561037096555
187, 6729.26, 8845.03, 18893.64, 21635.10, 9160.88, 13167.90, 4610.25, 7221.16, 0.000, 0.000, 0.000, 16:24:56.555, 1561037096555
188, 6715.60, 8847.45, 18892.65, 21635.73, 9145.35, 13156.93, 4610.52, 7214.85, 0.000, 0.000, 0.000, 16:24:56.555, 1561037096555
189, 6697.90, 8848.63, 18875.00, 21634.77, 9114.88, 13140.12, 4607.79, 7201.80, 0.000, 0.000, 0.000, 16:24:56.555, 1561037096555
190, 6703.80, 8857.26, 18878.91, 21634.48, 9109.43, 13142.40, 4604.48, 7204.88, 0.000, 0.000, 0.000, 16:24:56.555, 1561037096555
191, 6714.53, 8843.76, 18890.84, 21627.44, 9129.99, 13154.07, 4599.83, 7212.15, 0.000, 0.000, 0.000, 16:24:56.555, 1561037096555
192, 6735.70, 8852.01, 18909.93, 21646.79, 9154.80, 13171.57, 4607.12, 7223.48, 0.000, 0.000, 0.000, 16:24:56.556, 1561037096556
193, 6720.03, 8848.52, 18899.67, 21648.20, 9141.73, 13162.03, 4603.41, 7217.89, 0.000, 0.000, 0.000, 16:24:56.556, 1561037096556
194, 6696.49, 8841.81, 18878.93, 21640.02, 9110.91, 13143.99, 4599.18, 7206.00, 0.000, 0.000, 0.000, 16:24:56.556, 1561037096556
195, 6701.70, 8846.44, 18878.64, 21641.56, 9109.16, 13148.21, 4600.68, 7208.30, 0.020, 0.056, -1.040, 16:24:56.556, 1561037096556
196, 6724.10, 8846.42, 18897.06, 21642.93, 9139.56, 13167.66, 4600.95, 7221.94, 0.000, 0.000, 0.000, 16:24:56.556, 1561037096556
197, 6737.55, 8851.13, 18911.90, 21647.84, 9165.91, 13182.39, 4606.85, 7230.07, 0.000, 0.000, 0.000, 16:24:56.615, 1561037096615
198, 6724.59, 8853.70, 18896.97, 21653.16, 9154.16, 13176.89, 4604.03, 7219.35, 0.000, 0.000, 0.000, 16:24:56.615, 1561037096615
199, 6708.94, 8848.47, 18880.41, 21656.02, 9127.60, 13162.76, 4598.51, 7205.33, 0.000, 0.000, 0.000, 16:24:56.615, 1561037096615
200, 6716.01, 8850.04, 18889.88, 21659.35, 9129.17, 13169.40, 4606.94, 7212.66, 0.000, 0.000, 0.000, 16:24:56.615, 1561037096615
201, 6734.38, 8851.92, 18906.85, 21656.78, 9155.77, 13190.52, 4612.93, 7228.60, 0.000, 0.000, 0.000, 16:24:56.616, 1561037096616
202, 6739.54, 8851.98, 18911.23, 21652.83, 9171.39, 13199.89, 4613.76, 7231.64, 0.000, 0.000, 0.000, 16:24:56.616, 1561037096616
203, 6729.84, 8856.19, 18904.10, 21655.11, 9160.95, 13193.03, 4612.71, 7225.18, 0.000, 0.000, 0.000, 16:24:56.616, 1561037096616
204, 6707.58, 8846.98, 18887.69, 21646.81, 9133.03, 13172.89, 4609.76, 7213.42, 0.000, 0.000, 0.000, 16:24:56.616, 1561037096616
205, 6712.47, 8847.74, 18896.30, 21651.31, 9133.26, 13174.54, 4616.31, 7219.59, 0.018, 0.056, -1.034, 16:24:56.616, 1561037096616
206, 6737.42, 8855.29, 18922.83, 21654.84, 9166.67, 13191.69, 4624.67, 7234.88, 0.000, 0.000, 0.000, 16:24:56.616, 1561037096616
207, 6739.25, 8856.57, 18917.58, 21649.63, 9186.08, 13195.49, 4626.21, 7236.89, 0.000, 0.000, 0.000, 16:24:56.616, 1561037096616
208, 6717.37, 8842.44, 18891.67, 21645.41, 9162.49, 13177.78, 4618.83, 7224.06, 0.000, 0.000, 0.000, 16:24:56.616, 1561037096616
209, 6706.04, 8843.60, 18886.02, 21653.61, 9137.46, 13166.54, 4620.35, 7218.41, 0.000, 0.000, 0.000, 16:24:56.616, 1561037096616
210, 6715.34, 8852.43, 18903.12, 21657.92, 9137.93, 13170.21, 4627.01, 7225.74, 0.000, 0.000, 0.000, 16:24:56.616, 1561037096616
211, 6733.55, 8855.18, 18920.93, 21653.30, 9161.26, 13180.17, 4625.43, 7233.05, 0.000, 0.000, 0.000, 16:24:56.616, 1561037096616
212, 6734.45, 8852.81, 18920.48, 21646.21, 9171.86, 13178.95, 4620.28, 7232.98, 0.000, 0.000, 0.000, 16:24:56.675, 1561037096675
213, 6728.66, 8861.88, 18910.65, 21652.94, 9160.57, 13173.51, 4621.92, 7228.53, 0.000, 0.000, 0.000, 16:24:56.676, 1561037096676
214, 6711.07, 8857.57, 18897.04, 21653.92, 9128.90, 13157.93, 4617.92, 7212.66, 0.000, 0.000, 0.000, 16:24:56.676, 1561037096676
215, 6713.88, 8854.00, 18897.75, 21653.47, 9126.95, 13160.66, 4616.48, 7214.05, 0.016, 0.056, -1.032, 16:24:56.676, 1561037096676
216, 6734.25, 8858.96, 18919.61, 21652.94, 9153.96, 13176.89, 4618.12, 7225.98, 0.000, 0.000, 0.000, 16:24:56.676, 1561037096676
217, 6744.82, 8861.21, 18930.96, 21652.65, 9169.80, 13183.19, 4617.96, 7232.87, 0.000, 0.000, 0.000, 16:24:56.676, 1561037096676
218, 6733.49, 8861.08, 18921.00, 21654.03, 9152.37, 13169.18, 4614.54, 7223.19, 0.000, 0.000, 0.000, 16:24:56.676, 1561037096676
219, 6719.11, 8860.79, 18902.18, 21657.88, 9122.89, 13151.68, 4610.70, 7211.21, 0.000, 0.000, 0.000, 16:24:56.676, 1561037096676
220, 6720.59, 8858.82, 18898.89, 21655.49, 9121.17, 13152.95, 4606.74, 7213.82, 0.000, 0.000, 0.000, 16:24:56.676, 1561037096676
221, 6733.71, 8858.64, 18907.85, 21651.55, 9143.34, 13166.25, 4607.88, 7224.82, 0.000, 0.000, 0.000, 16:24:56.676, 1561037096676
222, 6739.63, 8860.05, 18914.80, 21646.08, 9160.26, 13173.47, 4612.71, 7229.56, 0.000, 0.000, 0.000, 16:24:56.676, 1561037096676
223, 6719.02, 8848.56, 18892.50, 21632.55, 9137.08, 13154.65, 4601.75, 7207.61, 0.000, 0.000, 0.000, 16:24:56.676, 1561037096676
224, 6719.87, 8864.66, 18894.78, 21659.26, 9120.43, 13157.64, 4615.34, 7208.73, 0.000, 0.000, 0.000, 16:24:56.676, 1561037096676
225, 6725.28, 8869.24, 18897.08, 21663.06, 9122.51, 13164.93, 4617.13, 7214.18, 0.012, 0.052, -1.032, 16:24:56.676, 1561037096676
226, 6741.64, 8874.51, 18910.71, 21654.39, 9153.06, 13182.03, 4613.98, 7224.26, 0.000, 0.000, 0.000, 16:24:56.676, 1561037096676
227, 6748.17, 8867.32, 18923.41, 21649.79, 9173.71, 13192.31, 4612.53, 7229.76, 0.000, 0.000, 0.000, 16:24:56.736, 1561037096736
228, 6739.90, 8867.03, 18918.72, 21651.66, 9162.32, 13187.73, 4612.98, 7223.68, 0.000, 0.000, 0.000, 16:24:56.736, 1561037096736
229, 6720.48, 8863.81, 18895.70, 21653.56, 9134.33, 13175.44, 4614.81, 7215.10, 0.000, 0.000, 0.000, 16:24:56.736, 1561037096736
230, 6719.14, 8857.84, 18895.34, 21649.47, 9136.41, 13175.03, 4617.83, 7218.32, 0.000, 0.000, 0.000, 16:24:56.736, 1561037096736
231, 6730.76, 8856.90, 18909.78, 21647.04, 9162.05, 13186.21, 4624.02, 7229.96, 0.000, 0.000, 0.000, 16:24:56.736, 1561037096736
232, 6740.35, 8859.54, 18914.40, 21644.04, 9183.37, 13190.75, 4625.38, 7236.60, 0.000, 0.000, 0.000, 16:24:56.737, 1561037096737
233, 6724.77, 8858.17, 18896.07, 21643.93, 9166.14, 13176.82, 4622.97, 7226.85, 0.000, 0.000, 0.000, 16:24:56.737, 1561037096737
234, 6709.90, 8855.85, 18882.96, 21645.34, 9134.96, 13158.18, 4621.94, 7214.34, 0.000, 0.000, 0.000, 16:24:56.737, 1561037096737
235, 6709.26, 8852.16, 18882.37, 21642.43, 9131.56, 13156.48, 4620.55, 7217.45, 0.016, 0.054, -1.038, 16:24:56.741, 1561037096741
236, 6726.56, 8856.12, 18899.05, 21640.82, 9156.03, 13170.45, 4617.00, 7228.40, 0.000, 0.000, 0.000, 16:24:56.741, 1561037096741
237, 6736.75, 8857.06, 18908.77, 21638.34, 9167.41, 13174.34, 4609.06, 7227.17, 0.000, 0.000, 0.000, 16:24:56.741, 1561037096741
238, 6722.31, 8848.83, 18898.47, 21635.15, 9151.88, 13162.36, 4602.36, 7217.02, 0.000, 0.000, 0.000, 16:24:56.741, 1561037096741
239, 6720.28, 8859.76, 18890.42, 21654.62, 9135.96, 13160.53, 4609.58, 7216.46, 0.000, 0.000, 0.000, 16:24:56.741, 1561037096741
240, 6728.05, 8866.22, 18894.15, 21660.79, 9133.50, 13165.31, 4613.47, 7219.86, 0.000, 0.000, 0.000, 16:24:56.741, 1561037096741
241, 6740.37, 8863.74, 18915.56, 21655.49, 9155.36, 13177.92, 4612.19, 7231.08, 0.000, 0.000, 0.000, 16:24:56.741, 1561037096741
242, 6750.32, 8865.06, 18925.56, 21659.96, 9172.87, 13186.39, 4609.29, 7238.23, 0.000, 0.000, 0.000, 16:24:56.796, 1561037096796
243, 6739.16, 8862.58, 18914.40, 21657.68, 9159.10, 13174.81, 4602.02, 7227.64, 0.000, 0.000, 0.000, 16:24:56.796, 1561037096796
244, 6719.45, 8862.44, 18904.39, 21658.04, 9132.45, 13155.92, 4598.71, 7211.03, 0.000, 0.000, 0.000, 16:24:56.796, 1561037096796
245, 6723.81, 8869.78, 18908.48, 21659.94, 9126.06, 13154.74, 4600.57, 7212.30, 0.012, 0.052, -1.038, 16:24:56.796, 1561037096796
246, 6736.90, 8863.54, 18918.14, 21652.80, 9147.74, 13167.77, 4602.63, 7222.65, 0.000, 0.000, 0.000, 16:24:56.796, 1561037096796
247, 6749.47, 8863.52, 18925.60, 21653.43, 9169.47, 13179.48, 4606.94, 7230.43, 0.000, 0.000, 0.000, 16:24:56.796, 1561037096796
248, 6736.68, 8857.46, 18908.55, 21651.62, 9153.06, 13166.29, 4602.72, 7217.62, 0.000, 0.000, 0.000, 16:24:56.796, 1561037096796
249, 6717.68, 8853.95, 18891.72, 21652.20, 9123.18, 13148.88, 4598.25, 7202.42, 0.000, 0.000, 0.000, 16:24:56.796, 1561037096796
250, 6719.34, 8853.70, 18892.99, 21652.31, 9122.13, 13151.30, 4597.62, 7202.60, 0.000, 0.000, 0.000, 16:24:56.796, 1561037096796
251, 6743.21, 8861.24, 18911.01, 21654.46, 9149.69, 13172.17, 4601.02, 7217.00, 0.000, 0.000, 0.000, 16:24:56.796, 1561037096796
252, 6744.68, 8853.10, 18911.95, 21647.57, 9170.16, 13181.56, 4602.25, 7225.78, 0.000, 0.000, 0.000, 16:24:56.796, 1561037096796
253, 6725.73, 8846.64, 18892.14, 21642.37, 9154.83, 13169.38, 4594.51, 7215.61, 0.000, 0.000, 0.000, 16:24:56.796, 1561037096796
254, 6709.59, 8849.93, 18881.48, 21651.51, 9131.56, 13160.21, 4602.69, 7214.00, 0.000, 0.000, 0.000, 16:24:56.797, 1561037096797
255, 6715.98, 8848.29, 18886.15, 21651.98, 9142.04, 13166.81, 4614.94, 7224.04, 0.012, 0.052, -1.028, 16:24:56.797, 1561037096797
0, 6732.12, 8848.76, 18899.12, 21648.51, 9168.55, 13180.38, 4619.01, 7235.73, 0.000, 0.000, 0.000, 16:24:56.797, 1561037096797
1, 6740.30, 8850.91, 18909.93, 21649.41, 9183.62, 13185.16, 4615.95, 7237.14, 0.000, 0.000, 0.000, 16:24:56.855, 1561037096855
2, 6732.73, 8852.14, 18898.33, 21649.29, 9168.04, 13174.48, 4609.49, 7227.12, 0.000, 0.000, 0.000, 16:24:56.856, 1561037096856
3, 6713.37, 8850.67, 18876.65, 21648.24, 9136.12, 13156.26, 4601.71, 7215.28, 0.000, 0.000, 0.000, 16:24:56.856, 1561037096856
4, 6724.50, 8858.58, 18885.19, 21655.64, 9132.83, 13157.58, 4603.97, 7218.05, 0.000, 0.000, 0.000, 16:24:56.856, 1561037096856
5, 6747.12, 8866.29, 18902.89, 21656.02, 9159.72, 13175.35, 4609.62, 7234.37, 0.000, 0.000, 0.000, 16:24:56.856, 1561037096856
6, 6753.42, 8865.33, 18911.21, 21649.81, 9175.93, 13181.07, 4601.49, 7234.66, 0.000, 0.000, 0.000, 16:24:56.856, 1561037096856
7, 6745.73, 8863.92, 18901.26, 21653.07, 9159.39, 13171.03, 4593.75, 7223.88, 0.000, 0.000, 0.000, 16:24:56.856, 1561037096856
8, 6727.85, 8859.40, 18879.00, 21652.22, 9126.22, 13152.30, 4591.45, 7209.24, 0.014, 0.048, -1.028, 16:24:56.856, 1561037096856
9, 6724.52, 8863.79, 18881.72, 21648.02, 9124.65, 13151.79, 4591.36, 7211.34, 0.000, 0.000, 0.000, 16:24:56.856, 1561037096856
10, 6740.15, 8863.20, 18905.13, 21647.13, 9148.34, 13167.50, 4593.75, 7223.48, 0.000, 0.000, 0.000, 16:24:56.856, 1561037096856
11, 6748.57, 8860.54, 18914.67, 21650.73, 9167.01, 13177.11, 4595.56, 7230.03, 0.000, 0.000, 0.000, 16:24:56.856, 1561037096856
12, 6736.01, 8858.71, 18906.27, 21648.65, 9154.51, 13168.51, 4598.16, 7223.86, 0.000, 0.000, 0.000, 16:24:56.856, 1561037096856
13, 6708.00, 8847.58, 18879.67, 21640.38, 9119.49, 13144.05, 4593.28, 7208.33, 0.000, 0.000, 0.000, 16:24:56.856, 1561037096856
14, 6714.04, 8851.69, 18879.96, 21640.33, 9116.67, 13144.12, 4595.25, 7208.59, 0.000, 0.000, 0.000, 16:24:56.856, 1561037096856
15, 6740.88, 8863.67, 18901.42, 21651.06, 9148.73, 13168.33, 4608.55, 7226.72, 0.000, 0.000, 0.000, 16:24:56.856, 1561037096856
16, 6751.39, 8869.02, 18905.60, 21653.68, 9164.84, 13176.33, 4610.49, 7227.95, 0.000, 0.000, 0.000, 16:24:56.915, 1561037096915
17, 6738.63, 8863.45, 18900.34, 21655.06, 9152.55, 13166.05, 4602.76, 7216.28, 0.000, 0.000, 0.000, 16:24:56.915, 1561037096915
18, 6718.89, 8854.71, 18883.49, 21654.03, 9118.15, 13144.59, 4592.19, 7197.78, 0.012, 0.042, -1.030, 16:24:56.915, 1561037096915
19, 6718.55, 8855.63, 18882.39, 21651.93, 9112.07, 13142.85, 4592.52, 7197.24, 0.000, 0.000, 0.000, 16:24:56.916, 1561037096916
20, 6726.71, 8851.87, 18891.20, 21642.54, 9140.63, 13159.12, 4591.34, 7209.24, 0.000, 0.000, 0.000, 16:24:56.916, 1561037096916
21, 6737.93, 8853.32, 18902.49, 21644.89, 9162.67, 13173.18, 4589.84, 7216.66, 0.000, 0.000, 0.000, 16:24:56.916, 1561037096916
22, 6725.55, 8847.67, 18891.38, 21644.02, 9150.71, 13168.78, 4587.47, 7212.35, 0.000, 0.000, 0.000, 16:24:56.916, 1561037096916
23, 6707.67, 8841.43, 18871.11, 21644.22, 9126.22, 13157.17, 4585.44, 7203.48, 0.000, 0.000, 0.000, 16:24:56.916, 1561037096916
24, 6712.21, 8844.83, 18869.07, 21644.67, 9116.23, 13155.10, 4579.22, 7200.84, 0.000, 0.000, 0.000, 16:24:56.916, 1561037096916
25, 6738.36, 8848.63, 18889.75, 21636.33, 9134.58, 13160.13, 4565.75, 7201.71, 0.000, 0.000, 0.000, 16:24:56.916, 1561037096916
26, 6753.53, 8849.14, 18903.27, 21633.94, 9157.58, 13167.88, 4565.75, 7207.12, 0.000, 0.000, 0.000, 16:24:56.916, 1561037096916
27, 6732.75, 8848.12, 18895.58, 21648.07, 9155.59, 13171.91, 4579.45, 7212.06, 0.000, 0.000, 0.000, 16:24:56.916, 1561037096916
28, 6705.99, 8851.04, 18869.30, 21655.58, 9129.70, 13160.55, 4584.43, 7209.31, 0.012, 0.048, -1.032, 16:24:56.916, 1561037096916
29, 6717.06, 8865.98, 18870.71, 21657.88, 9123.09, 13157.67, 4583.23, 7206.49, 0.000, 0.000, 0.000, 16:24:56.916, 1561037096916
30, 6756.48, 8893.87, 18910.09, 21675.80, 9161.71, 13188.22, 4599.03, 7229.02, 0.000, 0.000, 0.000, 16:24:56.916, 1561037096916
31, 6774.61, 8912.58, 18923.95, 21687.76, 9189.88, 13202.79, 4608.95, 7240.56, 0.000, 0.000, 0.000, 16:24:56.975, 1561037096975
32, 6764.78, 8921.74, 18915.70, 21695.79, 9183.73, 13200.31, 4614.76, 7239.77, 0.000, 0.000, 0.000, 16:24:56.975, 1561037096975
33, 6745.15, 8926.68, 18897.75, 21704.53, 9156.12, 13191.91, 4621.00, 7231.97, 0.000, 0.000, 0.000, 16:24:56.975, 1561037096975
34, 6747.19, 8934.35, 18902.54, 21710.54, 9151.12, 13198.35, 4625.11, 7235.46, 0.000, 0.000, 0.000, 16:24:56.976, 1561037096976
35, 6775.89, 8951.61, 18915.45, 21720.40, 9175.64, 13220.48, 4631.68, 7250.73, 0.000, 0.000, 0.000, 16:24:56.976, 1561037096976
36, 6792.27, 8967.50, 18929.18, 21727.82, 9197.14, 13235.90, 4630.14, 7259.96, 0.000, 0.000, 0.000, 16:24:56.976, 1561037096976
37, 6785.79, 8982.16, 18934.12, 21740.22, 9190.05, 13237.46, 4628.78, 7258.55, 0.000, 0.000, 0.000, 16:24:56.976, 1561037096976
38, 6771.86, 8990.25, 18920.66, 21749.07, 9164.91, 13227.63, 4626.45, 7253.79, 0.010, 0.056, -1.034, 16:24:56.976, 1561037096976
39, 6781.54, 8997.43, 18923.61, 21753.66, 9161.71, 13230.91, 4626.23, 7256.07, 0.000, 0.000, 0.000, 16:24:56.976, 1561037096976
40, 6803.38, 9011.53, 18936.31, 21761.21, 9189.90, 13256.22, 4637.88, 7276.03, 0.000, 0.000, 0.000, 16:24:56.976, 1561037096976
41, 6825.89, 9029.88, 18953.23, 21775.43, 9217.34, 13275.35, 4640.85, 7288.75, 0.000, 0.000, 0.000, 16:24:56.976, 1561037096976
42, 6824.19, 9044.88, 18962.91, 21783.90, 9208.54, 13269.13, 4639.28, 7281.28, 0.000, 0.000, 0.000, 16:24:56.976, 1561037096976
43, 6810.64, 9053.33, 18955.33, 21790.22, 9183.35, 13256.62, 4639.53, 7272.68, 0.000, 0.000, 0.000, 16:24:56.976, 1561037096976
44, 6818.76, 9064.15, 18956.83, 21800.95, 9185.65, 13263.44, 4648.60, 7280.25, 0.000, 0.000, 0.000, 16:24:56.976, 1561037096976
45, 6832.82, 9068.97, 18962.57, 21799.86, 9203.64, 13277.79, 4650.64, 7288.43, 0.000, 0.000, 0.000, 16:24:56.976, 1561037096976
46, 6851.23, 9083.30, 18972.90, 21804.69, 9227.22, 13294.66, 4655.40, 7295.56, 0.000, 0.000, 0.000, 16:24:57.036, 1561037097036
47, 6854.45, 9102.46, 18974.93, 21820.87, 9230.47, 13304.05, 4661.75, 7299.39, 0.000, 0.000, 0.000, 16:24:57.036, 1561037097036
48, 6842.52, 9112.31, 18950.12, 21830.10, 9202.37, 13297.92, 4665.48, 7294.04, 0.012, 0.054, -1.036, 16:24:57.036, 1561037097036
49, 6845.58, 9122.84, 18949.58, 21832.31, 9196.76, 13303.78, 4671.27, 7301.38, 0.000, 0.000, 0.000, 16:24:57.036, 1561037097036
50, 6865.14, 9133.03, 18969.48, 21835.06, 9223.02, 13324.23, 4680.86, 7317.38, 0.000, 0.000, 0.000, 16:24:57.036, 1561037097036
51, 6876.76, 9140.95, 18977.10, 21836.85, 9241.69, 13334.74, 4683.20, 7325.38, 0.000, 0.000, 0.000, 16:24:57.036, 1561037097036
52, 6872.29, 9150.78, 18962.24, 21839.02, 9224.86, 13324.17, 4679.47, 7317.04, 0.000, 0.000, 0.000, 16:24:57.036, 1561037097036
53, 6865.87, 9160.93, 18952.60, 21849.41, 9203.75, 13313.64, 4682.29, 7309.04, 0.000, 0.000, 0.000, 16:24:57.036, 1561037097036
54, 6872.69, 9166.25, 18953.38, 21851.11, 9198.17, 13313.06, 4682.73, 7310.03, 0.000, 0.000, 0.000, 16:24:57.036, 1561037097036
55, 6891.91, 9169.67, 18967.11, 21847.24, 9220.34, 13328.19, 4687.29, 7322.12, 0.000, 0.000, 0.000, 16:24:57.036, 1561037097036
56, 6904.99, 9178.61, 18978.96, 21848.14, 9238.62, 13338.11, 4689.13, 7326.32, 0.000, 0.000, 0.000, 16:24:57.036, 1561037097036
57, 6897.10, 9180.96, 18972.52, 21847.91, 9224.97, 13324.39, 4680.77, 7315.37, 0.000, 0.000, 0.000, 16:24:57.036, 1561037097036
58, 6880.96, 9177.40, 18957.83, 21846.68, 9193.70, 13300.18, 4673.15, 7298.81, 0.012, 0.050, -1.034, 16:24:57.037, 1561037097037
59, 6885.37, 9180.04, 18961.05, 21852.14, 9191.80, 13301.70, 4677.75, 7302.96, 0.000, 0.000, 0.000, 16:24:57.037, 1561037097037
60, 6898.24, 9174.65, 18966.35, 21845.95, 9211.29, 13310.66, 4672.97, 7310.32, 0.000, 0.000, 0.000, 16:24:57.037, 1561037097037
61, 6921.17, 9187.93, 18984.01, 21856.65, 9238.29, 13330.11, 4684.50, 7328.33, 0.000, 0.000, 0.000, 16:24:57.096, 1561037097096
62, 6910.58, 9189.56, 18979.33, 21859.02, 9226.53, 13323.09, 4682.20, 7321.94, 0.000, 0.000, 0.000, 16:24:57.096, 1561037097096
63, 6891.65, 9189.41, 18964.00, 21858.91, 9198.06, 13303.56, 4673.50, 7306.52, 0.000, 0.000, 0.000, 16:24:57.096, 1561037097096
64, 6890.46, 9187.10, 18964.63, 21855.78, 9193.70, 13301.01, 4671.83, 7307.30, 0.000, 0.000, 0.000, 16:24:57.096, 1561037097096
65, 6908.72, 9187.73, 18976.72, 21849.41, 9215.85, 13312.45, 4672.16, 7316.46, 0.000, 0.000, 0.000, 16:24:57.096, 1561037097096
66, 6919.27, 9190.12, 18983.22, 21850.01, 9234.24, 13321.77, 4674.93, 7320.49, 0.000, 0.000, 0.000, 16:24:57.096, 1561037097096
67, 6906.15, 9188.33, 18974.35, 21850.89, 9222.78, 13310.89, 4673.17, 7307.81, 0.000, 0.000, 0.000, 16:24:57.096, 1561037097096
68, 6883.44, 9184.62, 18962.08, 21849.25, 9200.56, 13295.15, 4670.60, 7291.56, 0.012, 0.048, -1.026, 16:24:57.096, 1561037097096
69, 6883.40, 9184.26, 18971.33, 21851.89, 9199.13, 13296.63, 4672.61, 7288.86, 0.000, 0.000, 0.000, 16:24:57.096, 1561037097096
70, 6909.97, 9190.79, 18990.80, 21853.84, 9220.16, 13313.15, 4677.50, 7300.84, 0.000, 0.000, 0.000, 16:24:57.097, 1561037097097
71, 6920.46, 9191.08, 18996.30, 21852.36, 9240.50, 13324.30, 4673.71, 7307.61, 0.000, 0.000, 0.000, 16:24:57.097, 1561037097097
72, 6908.92, 9192.22, 18978.60, 21856.74, 9232.21, 13320.03, 4669.75, 7299.72, 0.000, 0.000, 0.000, 16:24:57.097, 1561037097097
73, 6887.27, 9189.52, 18961.23, 21858.75, 9205.79, 13307.40, 4669.99, 7288.28, 0.000, 0.000, 0.000, 16:24:57.097, 1561037097097
74, 6887.04, 9188.11, 18963.31, 21859.29, 9199.51, 13311.18, 4672.79, 7288.72, 0.000, 0.000, 0.000, 16:24:57.097, 1561037097097
75, 6903.20, 9191.66, 18971.45, 21858.91, 9223.71, 13330.16, 4680.57, 7302.87, 0.000, 0.000, 0.000, 16:24:57.097, 1561037097097
76, 6912.41, 9191.66, 18980.05, 21857.21, 9238.56, 13336.03, 4679.43, 7304.68, 0.000, 0.000, 0.000, 16:24:57.156, 1561037097156
77, 6906.20, 9189.32, 18971.38, 21855.40, 9227.63, 13330.27, 4677.17, 7298.87, 0.000, 0.000, 0.000, 16:24:57.156, 1561037097156
78, 6889.10, 9188.71, 18955.80, 21856.32, 9206.86, 13320.23, 4680.86, 7298.56, 0.012, 0.050, -1.024, 16:24:57.156, 1561037097156
79, 6886.37, 9185.11, 18958.71, 21851.27, 9200.13, 13316.99, 4681.48, 7301.15, 0.000, 0.000, 0.000, 16:24:57.156, 1561037097156
80, 6902.93, 9187.24, 18972.52, 21850.48, 9220.16, 13328.05, 4684.57, 7309.98, 0.000, 0.000, 0.000, 16:24:57.156, 1561037097156
81, 6908.72, 9184.73, 18975.94, 21846.95, 9236.72, 13332.50, 4684.08, 7312.44, 0.000, 0.000, 0.000, 16:24:57.156, 1561037097156
82, 6897.61, 9181.31, 18969.50, 21846.28, 9225.41, 13322.96, 4679.40, 7307.63, 0.000, 0.000, 0.000, 16:24:57.156, 1561037097156
83, 6880.34, 9178.56, 18955.13, 21848.63, 9199.89, 13305.05, 4678.85, 7296.12, 0.000, 0.000, 0.000, 16:24:57.157, 1561037097157
84, 6880.94, 9181.83, 18954.75, 21854.33, 9190.34, 13299.38, 4679.47, 7293.22, 0.000, 0.000, 0.000, 16:24:57.157, 1561037097157
85, 6900.34, 9186.37, 18979.65, 21853.39, 9214.86, 13310.80, 4677.19, 7302.56, 0.000, 0.000, 0.000, 16:24:57.157, 1561037097157
86, 6912.79, 9189.72, 18996.72, 21853.19, 9240.23, 13320.28, 4674.55, 7304.68, 0.000, 0.000, 0.000, 16:24:57.157, 1561037097157
87, 6903.92, 9190.43, 18983.58, 21850.84, 9229.77, 13311.71, 4668.54, 7294.49, 0.000, 0.000, 0.000, 16:24:57.157, 1561037097157
88, 6890.73, 9188.56, 18960.87, 21850.53, 9200.07, 13291.75, 4660.81, 7276.10, 0.018, 0.056, -1.028, 16:24:57.157, 1561037097157
89, 6888.05, 9183.01, 18962.19, 21848.00, 9193.23, 13288.85, 4663.00, 7274.15, 0.000, 0.000, 0.000, 16:24:57.157, 1561037097157
90, 6901.12, 9184.47, 18975.49, 21851.87, 9224.79, 13314.29, 4681.08, 7297.08, 0.000, 0.000, 0.000, 16:24:57.157, 1561037097157
91, 6909.21, 9186.75, 18983.31, 21851.13, 9248.66, 13327.21, 4684.46, 7305.76, 0.000, 0.000, 0.000, 16:24:57.215, 1561037097215
92, 6900.18, 9186.63, 18961.56, 21845.72, 9231.96, 13313.55, 4675.87, 7292.66, 0.000, 0.000, 0.000, 16:24:57.215, 1561037097215
93, 6892.52, 9194.90, 18952.07, 21852.65, 9212.09, 13306.71, 4681.98, 7290.60, 0.000, 0.000, 0.000, 16:24:57.215, 1561037097215
94, 6897.14, 9199.98, 18961.39, 21857.75, 9207.13, 13307.78, 4681.73, 7289.66, 0.000, 0.000, 0.000, 16:24:57.215, 1561037097215
95, 6918.83, 9202.41, 18971.56, 21856.56, 9232.19, 13322.94, 4683.25, 7300.93, 0.000, 0.000, 0.000, 16:24:57.215, 1561037097215
96, 6924.84, 9202.30, 18968.25, 21853.46, 9253.26, 13332.86, 4686.71, 7309.89, 0.000, 0.000, 0.000, 16:24:57.215, 1561037097215
97, 6916.46, 9205.23, 18965.03, 21856.79, 9246.22, 13326.96, 4685.51, 7304.30, 0.000, 0.000, 0.000, 16:24:57.215, 1561037097215
98, 6897.17, 9201.86, 18943.35, 21859.92, 9214.71, 13313.95, 4679.09, 7288.77, 0.018, 0.052, -1.030, 16:24:57.215, 1561037097215
99, 6893.17, 9197.38, 18938.50, 21858.42, 9202.50, 13312.97, 4673.82, 7285.73, 0.000, 0.000, 0.000, 16:24:57.215, 1561037097215
100, 6914.20, 9202.12, 18967.49, 21860.34, 9227.05, 13333.62, 4681.15, 7298.40, 0.000, 0.000, 0.000, 16:24:57.215, 1561037097215
101, 6929.47, 9209.23, 18983.40, 21860.56, 9248.03, 13348.22, 4688.48, 7304.33, 0.000, 0.000, 0.000, 16:24:57.215, 1561037097215
102, 6914.60, 9207.91, 18975.27, 21858.53, 9235.14, 13338.11, 4683.27, 7293.40, 0.000, 0.000, 0.000, 16:24:57.215, 1561037097215
103, 6889.99, 9198.66, 18953.29, 21851.24, 9204.81, 13316.90, 4680.86, 7282.40, 0.000, 0.000, 0.000, 16:24:57.216, 1561037097216
104, 6889.57, 9197.99, 18947.53, 21850.86, 9197.76, 13317.79, 4687.56, 7285.91, 0.000, 0.000, 0.000, 16:24:57.216, 1561037097216
105, 6904.41, 9193.47, 18958.21, 21842.37, 9212.41, 13324.90, 4685.55, 7292.73, 0.000, 0.000, 0.000, 16:24:57.216, 1561037097216
106, 6926.87, 9205.95, 18975.54, 21850.53, 9239.92, 13343.01, 4694.16, 7307.30, 0.000, 0.000, 0.000, 16:24:57.275, 1561037097275
107, 6919.25, 9209.28, 18964.54, 21854.53, 9231.52, 13338.54, 4693.17, 7304.46, 0.000, 0.000, 0.000, 16:24:57.275, 1561037097275
108, 6901.77, 9206.15, 18942.72, 21856.09, 9207.51, 13323.14, 4687.18, 7293.69, 0.016, 0.048, -1.040, 16:24:57.275, 1561037097275
109, 6896.12, 9207.15, 18942.61, 21855.80, 9200.67, 13318.69, 4681.71, 7292.17, 0.000, 0.000, 0.000, 16:24:57.275, 1561037097275
110, 6911.29, 9208.92, 18959.49, 21856.05, 9219.94, 13329.91, 4682.69, 7298.69, 0.000, 0.000, 0.000, 16:24:57.275, 1561037097275
111, 6921.42, 9199.06, 18975.94, 21852.32, 9240.95, 13337.71, 4684.86, 7305.35, 0.000, 0.000, 0.000, 16:24:57.275, 1561037097275
112, 6910.13, 9198.77, 18967.42, 21851.71, 9232.37, 13328.01, 4675.90, 7297.17, 0.000, 0.000, 0.000, 16:24:57.275, 1561037097275
113, 6891.20, 9196.13, 18947.26, 21851.96, 9204.76, 13311.56, 4669.64, 7284.12, 0.000, 0.000, 0.000, 16:24:57.275, 1561037097275
114, 6890.57, 9198.28, 18946.52, 21855.38, 9197.03, 13311.25, 4672.03, 7284.28, 0.000, 0.000, 0.000, 16:24:57.275, 1561037097275
115, 6907.05, 9202.73, 18958.50, 21857.72, 9217.88, 13327.29, 4676.57, 7298.85, 0.000, 0.000, 0.000, 16:24:57.276, 1561037097276
116, 6914.33, 9203.24, 18966.66, 21853.03, 9238.89, 13333.80, 4673.28, 7305.65, 0.000, 0.000, 0.000, 16:24:57.276, 1561037097276
117, 6908.23, 9202.88, 18955.80, 21850.91, 9233.01, 13325.51, 4672.05, 7298.29, 0.000, 0.000, 0.000, 16:24:57.276, 1561037097276
118, 6880.07, 9188.56, 18926.07, 21841.21, 9197.50, 13298.30, 4665.10, 7278.93, 0.016, 0.046, -1.040, 16:24:57.276, 1561037097276
119, 6883.58, 9195.55, 18929.87, 21850.21, 9197.76, 13301.97, 4679.63, 7287.65, 0.000, 0.000, 0.000, 16:24:57.276, 1561037097276
120, 6906.73, 9203.29, 18951.13, 21855.65, 9225.37, 13322.31, 4687.85, 7300.84, 0.000, 0.000, 0.000, 16:24:57.276, 1561037097276
121, 6923.45, 9204.22, 18955.02, 21854.39, 9247.01, 13334.78, 4689.15, 7307.68, 0.000, 0.000, 0.000, 16:24:57.336, 1561037097336
122, 6908.30, 9201.43, 18936.55, 21849.81, 9234.15, 13324.95, 4683.54, 7295.45, 0.000, 0.000, 0.000, 16:24:57.336, 1561037097336
123, 6893.17, 9203.96, 18926.65, 21857.52, 9208.07, 13312.94, 4686.15, 7286.56, 0.000, 0.000, 0.000, 16:24:57.336, 1561037097336
124, 6893.66, 9201.27, 18922.65, 21856.72, 9199.29, 13314.55, 4690.27, 7288.05, 0.000, 0.000, 0.000, 16:24:57.336, 1561037097336
125, 6909.53, 9199.13, 18935.59, 21852.54, 9220.68, 13330.65, 4694.60, 7300.50, 0.000, 0.000, 0.000, 16:24:57.336, 1561037097336
126, 6916.90, 9200.13, 18950.54, 21847.91, 9239.85, 13343.21, 4689.71, 7306.43, 0.000, 0.000, 0.000, 16:24:57.336, 1561037097336
127, 6911.11, 9201.65, 18945.81, 21847.89, 9230.87, 13340.17, 4687.52, 7301.62, 0.018, 0.048, -1.036, 16:24:57.336, 1561037097336
128, 6890.13, 9196.63, 18923.57, 21847.06, 9197.34, 13322.33, 4687.76, 7288.72, 0.000, 0.000, 0.000, 16:24:57.336, 1561037097336
129, 6884.25, 9193.54, 18916.24, 21839.08, 9188.11, 13313.82, 4685.93, 7286.56, 0.000, 0.000, 0.000, 16:24:57.336, 1561037097336
130, 6903.76, 9197.97, 18927.90, 21839.44, 9206.97, 13326.74, 4687.52, 7296.97, 0.000, 0.000, 0.000, 16:24:57.336, 1561037097336
131, 6915.00, 9200.11, 18938.99, 21837.12, 9233.04, 13338.54, 4690.13, 7306.49, 0.000, 0.000, 0.000, 16:24:57.336, 1561037097336
132, 6907.74, 9198.75, 18935.64, 21841.12, 9226.38, 13331.45, 4686.13, 7301.51, 0.000, 0.000, 0.000, 16:24:57.336, 1561037097336
133, 6887.82, 9190.41, 18914.00, 21842.48, 9191.28, 13308.76, 4674.24, 7283.11, 0.000, 0.000, 0.000, 16:24:57.336, 1561037097336
134, 6887.38, 9197.83, 18922.29, 21851.38, 9184.17, 13310.98, 4678.42, 7287.47, 0.000, 0.000, 0.000, 16:24:57.336, 1561037097336
135, 6914.22, 9209.86, 18949.07, 21855.40, 9218.60, 13334.51, 4690.38, 7308.60, 0.000, 0.000, 0.000, 16:24:57.336, 1561037097336
136, 6928.10, 9212.34, 18962.71, 21853.37, 9242.87, 13345.02, 4690.16, 7315.35, 0.000, 0.000, 0.000, 16:24:57.396, 1561037097396
137, 6912.68, 9206.84, 18953.27, 21845.14, 9232.41, 13335.63, 4685.08, 7306.47, 0.016, 0.054, -1.038, 16:24:57.396, 1561037097396
138, 6893.75, 9207.55, 18935.97, 21850.13, 9205.03, 13319.38, 4683.38, 7293.60, 0.000, 0.000, 0.000, 16:24:57.396, 1561037097396
139, 6889.79, 9201.39, 18934.23, 21846.66, 9197.03, 13312.54, 4682.96, 7289.15, 0.000, 0.000, 0.000, 16:24:57.396, 1561037097396
140, 6901.97, 9201.97, 18939.10, 21845.50, 9218.42, 13324.79, 4683.20, 7299.50, 0.000, 0.000, 0.000, 16:24:57.396, 1561037097396
141, 6912.79, 9205.90, 18947.80, 21844.96, 9239.18, 13335.47, 4681.73, 7307.32, 0.000, 0.000, 0.000, 16:24:57.396, 1561037097396
142, 6905.66, 9206.44, 18941.11, 21844.31, 9233.46, 13327.54, 4677.57, 7298.25, 0.000, 0.000, 0.000, 16:24:57.396, 1561037097396
143, 6891.62, 9208.54, 18919.52, 21844.78, 9204.40, 13313.10, 4672.83, 7288.08, 0.000, 0.000, 0.000, 16:24:57.396, 1561037097396
144, 6887.29, 9202.82, 18915.70, 21845.99, 9190.10, 13310.60, 4673.86, 7286.80, 0.000, 0.000, 0.000, 16:24:57.396, 1561037097396
145, 6894.66, 9191.31, 18929.94, 21840.58, 9205.92, 13321.19, 4678.56, 7297.82, 0.000, 0.000, 0.000, 16:24:57.396, 1561037097396
146, 6903.74, 9195.80, 18942.07, 21841.01, 9224.30, 13331.09, 4674.40, 7303.34, 0.000, 0.000, 0.000, 16:24:57.396, 1561037097396
147, 6915.70, 9214.93, 18948.24, 21858.62, 9231.92, 13340.84, 4688.97, 7310.12, 0.014, 0.052, -1.030, 16:24:57.396, 1561037097396
148, 6893.52, 9209.12, 18927.77, 21855.27, 9200.96, 13319.99, 4684.81, 7289.37, 0.000, 0.000, 0.000, 16:24:57.396, 1561037097396
149, 6891.02, 9206.15, 18925.29, 21851.60, 9191.73, 13316.43, 4684.12, 7283.34, 0.000, 0.000, 0.000, 16:24:57.396, 1561037097396
150, 6906.55, 9208.16, 18940.17, 21853.79, 9214.69, 13335.70, 4692.15, 7297.80, 0.000, 0.000, 0.000, 16:24:57.396, 1561037097396
0, 6643.21, 8752.88, 18757.87, 21595.16, 9129.10, 13138.65, 4503.30, 7117.11, 0.016, 0.048, -1.028, 16:25:01.034, 1561037101034
1, 6626.44, 8752.83, 18746.25, 21599.29, 9111.75, 13127.96, 4500.39, 7105.44, 0.000, 0.000, 0.000, 16:25:01.034, 1561037101034
3, 6618.87, 8746.73, 18740.62, 21594.31, 9093.54, 13120.72, 4499.43, 7102.69, 0.000, 0.000, 0.000, 16:25:01.035, 1561037101035
4, 6633.57, 8746.71, 18754.30, 21592.77, 9118.59, 13136.68, 4501.98, 7115.54, 0.000, 0.000, 0.000, 16:25:01.035, 1561037101035
5, 6630.78, 8740.00, 18746.16, 21589.46, 9121.28, 13135.81, 4496.34, 7110.85, 0.000, 0.000, 0.000, 16:25:01.035, 1561037101035
6, 6627.58, 8755.78, 18742.18, 21604.05, 9108.18, 13131.90, 4502.27, 7107.97, 0.000, 0.000, 0.000, 16:25:01.035, 1561037101035
7, 6616.14, 8761.82, 18732.57, 21606.78, 9084.40, 13121.84, 4501.86, 7100.68, 0.018, 0.048, -1.034, 16:25:01.035, 1561037101035
8, 6623.38, 8754.04, 18739.84, 21609.11, 9088.06, 13129.71, 4503.94, 7106.60, 0.000, 0.000, 0.000, 16:25:01.035, 1561037101035
9, 6639.97, 8752.52, 18757.45, 21605.78, 9113.10, 13143.47, 4504.88, 7120.04, 0.000, 0.000, 0.000, 16:25:01.035, 1561037101035
10, 6640.17, 8755.54, 18759.62, 21603.92, 9121.23, 13146.04, 4501.35, 7121.76, 0.000, 0.000, 0.000, 16:25:01.035, 1561037101035
11, 6622.17, 8755.16, 18747.21, 21604.28, 9099.17, 13132.63, 4497.15, 7109.75, 0.000, 0.000, 0.000, 16:25:01.035, 1561037101035
12, 6611.74, 8755.80, 18742.79, 21606.85, 9075.28, 13120.85, 4490.78, 7097.93, 0.000, 0.000, 0.000, 16:25:01.035, 1561037101035
13, 6616.43, 8759.51, 18753.81, 21608.06, 9083.21, 13128.90, 4493.13, 7106.74, 0.000, 0.000, 0.000, 16:25:01.035, 1561037101035
14, 6633.55, 8764.81, 18767.71, 21608.17, 9106.06, 13143.58, 4496.99, 7119.39, 0.000, 0.000, 0.000, 16:25:01.035, 1561037101035
15, 6640.68, 8765.37, 18768.83, 21606.78, 9118.71, 13147.27, 4497.01, 7121.40, 0.000, 0.000, 0.000, 16:25:01.094, 1561037101094
16, 6623.94, 8763.40, 18750.50, 21605.42, 9096.44, 13132.30, 4491.96, 7104.93, 0.000, 0.000, 0.000, 16:25:01.094, 1561037101094
17, 6612.70, 8767.05, 18739.17, 21608.97, 9073.44, 13121.73, 4490.91, 7096.41, 0.020, 0.050, -1.034, 16:25:01.094, 1561037101094
18, 6619.45, 8764.36, 18743.70, 21606.65, 9080.15, 13129.33, 4493.91, 7103.76, 0.000, 0.000, 0.000, 16:25:01.095, 1561037101095
19, 6632.92, 8765.55, 18750.90, 21604.93, 9105.81, 13144.32, 4495.25, 7114.40, 0.000, 0.000, 0.000, 16:25:01.095, 1561037101095
20, 6632.92, 8762.15, 18747.21, 21601.84, 9111.31, 13141.13, 4490.49, 7111.86, 0.000, 0.000, 0.000, 16:25:01.095, 1561037101095
21, 6619.92, 8760.97, 18735.92, 21602.80, 9096.11, 13129.46, 4493.73, 7105.73, 0.000, 0.000, 0.000, 16:25:01.095, 1561037101095
22, 6609.01, 8762.87, 18733.13, 21605.06, 9076.46, 13120.88, 4495.11, 7102.11, 0.000, 0.000, 0.000, 16:25:01.095, 1561037101095
23, 6620.34, 8767.83, 18743.03, 21605.17, 9084.51, 13129.26, 4496.34, 7106.33, 0.000, 0.000, 0.000, 16:25:01.095, 1561037101095
24, 6635.12, 8769.77, 18758.92, 21604.39, 9111.78, 13146.58, 4498.15, 7116.62, 0.000, 0.000, 0.000, 16:25:01.095, 1561037101095
25, 6639.65, 8772.34, 18756.24, 21608.30, 9123.38, 13152.17, 4499.18, 7117.42, 0.000, 0.000, 0.000, 16:25:01.095, 1561037101095
26, 6620.85, 8769.91, 18736.88, 21607.32, 9101.07, 13137.24, 4498.69, 7106.02, 0.000, 0.000, 0.000, 16:25:01.095, 1561037101095
27, 6605.12, 8764.81, 18726.04, 21604.73, 9077.38, 13123.87, 4498.65, 7098.71, 0.012, 0.046, -1.036, 16:25:01.095, 1561037101095
28, 6614.42, 8763.43, 18734.85, 21604.59, 9087.91, 13130.78, 4503.12, 7109.04, 0.000, 0.000, 0.000, 16:25:01.095, 1561037101095
29, 6630.02, 8764.32, 18743.26, 21601.08, 9114.35, 13144.64, 4505.46, 7118.70, 0.000, 0.000, 0.000, 16:25:01.095, 1561037101095
30, 6635.09, 8766.91, 18742.79, 21598.96, 9124.25, 13146.85, 4499.74, 7118.38, 0.000, 0.000, 0.000, 16:25:01.154, 1561037101154
31, 6615.98, 8765.95, 18734.76, 21600.97, 9103.55, 13133.62, 4494.58, 7107.39, 0.000, 0.000, 0.000, 16:25:01.155, 1561037101155
32, 6599.53, 8764.36, 18729.15, 21602.85, 9074.65, 13117.19, 4492.90, 7094.51, 0.000, 0.000, 0.000, 16:25:01.155, 1561037101155
33, 6610.04, 8764.34, 18738.99, 21602.65, 9079.70, 13123.71, 4495.23, 7099.32, 0.000, 0.000, 0.000, 16:25:01.155, 1561037101155
34, 6628.43, 8768.72, 18755.01, 21602.27, 9105.74, 13140.39, 4497.15, 7112.08, 0.000, 0.000, 0.000, 16:25:01.155, 1561037101155
35, 6625.03, 8764.23, 18750.07, 21596.90, 9112.54, 13138.20, 4493.35, 7106.74, 0.000, 0.000, 0.000, 16:25:01.155, 1561037101155
36, 6606.01, 8756.00, 18727.43, 21591.99, 9089.52, 13121.68, 4487.02, 7090.49, 0.022, 0.052, -1.032, 16:25:01.155, 1561037101155
37, 6600.72, 8763.13, 18719.41, 21601.15, 9072.10, 13117.86, 4494.73, 7090.71, 0.000, 0.000, 0.000, 16:25:01.155, 1561037101155
38, 6616.05, 8773.44, 18740.15, 21607.50, 9079.01, 13129.24, 4506.18, 7104.35, 0.000, 0.000, 0.000, 16:25:01.155, 1561037101155
39, 6634.20, 8770.22, 18756.60, 21604.70, 9103.93, 13144.99, 4508.48, 7116.93, 0.000, 0.000, 0.000, 16:25:01.155, 1561037101155
40, 6633.86, 8764.88, 18745.94, 21603.25, 9113.36, 13147.41, 4502.89, 7114.40, 0.000, 0.000, 0.000, 16:25:01.155, 1561037101155
41, 6615.62, 8764.79, 18729.49, 21600.97, 9092.33, 13130.24, 4501.28, 7100.61, 0.000, 0.000, 0.000, 16:25:01.155, 1561037101155
42, 6600.31, 8760.83, 18719.47, 21599.09, 9064.37, 13111.82, 4499.72, 7088.10, 0.000, 0.000, 0.000, 16:25:01.155, 1561037101155
43, 6611.76, 8758.58, 18729.26, 21596.66, 9070.87, 13115.56, 4501.37, 7090.02, 0.000, 0.000, 0.000, 16:25:01.155, 1561037101155
44, 6631.63, 8759.04, 18749.89, 21592.88, 9097.45, 13127.13, 4496.92, 7098.00, 0.000, 0.000, 0.000, 16:25:01.155, 1561037101155
45, 6638.71, 8765.66, 18753.58, 21594.20, 9107.58, 13130.15, 4493.17, 7095.36, 0.000, 0.000, 0.000, 16:25:01.215, 1561037101215
46, 6616.21, 8758.31, 18739.79, 21596.23, 9092.91, 13117.79, 4495.74, 7084.68, 0.014, 0.058, -1.032, 16:25:01.215, 1561037101215
47, 6594.35, 8746.91, 18733.76, 21599.09, 9072.42, 13107.49, 4499.54, 7079.83, 0.000, 0.000, 0.000, 16:25:01.215, 1561037101215
48, 6598.21, 8749.90, 18746.14, 21600.41, 9077.11, 13113.83, 4498.53, 7085.19, 0.000, 0.000, 0.000, 16:25:01.215, 1561037101215
49, 6620.07, 8758.15, 18757.00, 21604.57, 9106.86, 13132.41, 4500.01, 7099.05, 0.000, 0.000, 0.000, 16:25:01.215, 1561037101215
50, 6626.00, 8757.44, 18757.76, 21601.87, 9121.88, 13138.44, 4497.57, 7101.51, 0.000, 0.000, 0.000, 16:25:01.215, 1561037101215
51, 6610.84, 8756.90, 18736.86, 21603.27, 9099.10, 13126.31, 4494.96, 7091.43, 0.000, 0.000, 0.000, 16:25:01.215, 1561037101215
52, 6597.50, 8757.73, 18723.72, 21606.34, 9069.89, 13114.21, 4494.53, 7082.98, 0.000, 0.000, 0.000, 16:25:01.215, 1561037101215
53, 6598.41, 8752.81, 18727.65, 21598.85, 9069.94, 13115.76, 4486.84, 7079.60, 0.000, 0.000, 0.000, 16:25:01.215, 1561037101215
54, 6618.17, 8757.21, 18738.18, 21598.96, 9098.32, 13129.95, 4484.16, 7090.58, 0.000, 0.000, 0.000, 16:25:01.215, 1561037101215
55, 6638.62, 8775.38, 18753.63, 21615.28, 9119.24, 13145.33, 4494.80, 7103.92, 0.000, 0.000, 0.000, 16:25:01.217, 1561037101217
56, 6620.16, 8774.80, 18748.04, 21613.22, 9098.39, 13132.36, 4494.69, 7092.34, 0.016, 0.058, -1.028, 16:25:01.217, 1561037101217
57, 6600.07, 8767.56, 18735.03, 21609.46, 9069.85, 13118.28, 4495.85, 7081.79, 0.000, 0.000, 0.000, 16:25:01.217, 1561037101217
58, 6612.56, 8767.49, 18750.23, 21612.53, 9081.18, 13127.27, 4500.86, 7089.26, 0.000, 0.000, 0.000, 16:25:01.218, 1561037101218
59, 6629.73, 8770.24, 18762.17, 21611.86, 9104.71, 13140.86, 4503.72, 7100.90, 0.000, 0.000, 0.000, 16:25:01.218, 1561037101218
60, 6633.64, 8771.12, 18759.86, 21609.13, 9113.16, 13142.78, 4501.48, 7105.40, 0.000, 0.000, 0.000, 16:25:01.275, 1561037101275
61, 6617.01, 8763.98, 18738.56, 21604.53, 9089.85, 13126.46, 4492.72, 7091.05, 0.000, 0.000, 0.000, 16:25:01.275, 1561037101275
62, 6602.33, 8760.12, 18727.92, 21608.30, 9060.93, 13112.94, 4491.63, 7081.55, 0.000, 0.000, 0.000, 16:25:01.275, 1561037101275
63, 6608.54, 8761.28, 18735.16, 21611.14, 9063.36, 13119.40, 4496.97, 7086.20, 0.000, 0.000, 0.000, 16:25:01.275, 1561037101275
64, 6625.73, 8761.50, 18748.46, 21606.56, 9091.19, 13137.91, 4497.55, 7094.91, 0.000, 0.000, 0.000, 16:25:01.276, 1561037101276
65, 6632.54, 8762.58, 18757.76, 21606.18, 9106.19, 13147.68, 4495.18, 7098.04, 0.000, 0.000, 0.000, 16:25:01.276, 1561037101276
66, 6618.15, 8763.81, 18746.83, 21605.62, 9086.32, 13135.25, 4488.25, 7085.08, 0.014, 0.056, -1.032, 16:25:01.276, 1561037101276
67, 6603.02, 8763.74, 18735.57, 21609.96, 9063.27, 13125.35, 4488.23, 7080.41, 0.000, 0.000, 0.000, 16:25:01.276, 1561037101276
68, 6608.09, 8763.20, 18747.75, 21612.86, 9068.10, 13131.56, 4496.81, 7086.53, 0.000, 0.000, 0.000, 16:25:01.276, 1561037101276
69, 6627.47, 8762.91, 18765.92, 21608.37, 9098.39, 13146.27, 4499.92, 7096.79, 0.000, 0.000, 0.000, 16:25:01.276, 1561037101276
70, 6633.62, 8765.55, 18762.99, 21607.34, 9110.26, 13150.25, 4496.34, 7098.67, 0.000, 0.000, 0.000, 16:25:01.276, 1561037101276
71, 6613.64, 8761.59, 18745.51, 21603.12, 9086.59, 13133.71, 4488.25, 7081.43, 0.000, 0.000, 0.000, 16:25:01.276, 1561037101276
72, 6591.73, 8751.07, 18725.08, 21595.88, 9060.37, 13114.75, 4482.66, 7065.97, 0.000, 0.000, 0.000, 16:25:01.276, 1561037101276
73, 6610.30, 8763.20, 18748.24, 21607.63, 9077.74, 13130.91, 4499.85, 7085.03, 0.000, 0.000, 0.000, 16:25:01.276, 1561037101276
74, 6625.15, 8765.77, 18762.97, 21602.74, 9100.98, 13145.35, 4502.20, 7096.46, 0.000, 0.000, 0.000, 16:25:01.276, 1561037101276
75, 6628.36, 8770.02, 18765.81, 21601.26, 9115.51, 13152.39, 4501.06, 7099.72, 0.000, 0.000, 0.000, 16:25:01.334, 1561037101334
76, 6610.19, 8759.45, 18742.12, 21594.78, 9095.44, 13137.10, 4501.22, 7089.50, 0.018, 0.056, -1.040, 16:25:01.335, 1561037101335
77, 6594.68, 8754.82, 18734.07, 21593.04, 9067.99, 13119.31, 4497.98, 7080.00, 0.000, 0.000, 0.000, 16:25:01.335, 1561037101335
78, 6610.33, 8761.68, 18750.36, 21599.83, 9076.57, 13130.29, 4506.38, 7088.99, 0.000, 0.000, 0.000, 16:25:01.335, 1561037101335
79, 6629.39, 8764.66, 18759.46, 21601.80, 9106.46, 13151.12, 4513.31, 7104.93, 0.000, 0.000, 0.000, 16:25:01.335, 1561037101335
80, 6637.02, 8767.56, 18752.84, 21602.56, 9117.97, 13155.21, 4510.98, 7107.05, 0.000, 0.000, 0.000, 16:25:01.335, 1561037101335
81, 6617.21, 8762.87, 18732.50, 21600.26, 9095.24, 13138.42, 4505.40, 7094.20, 0.000, 0.000, 0.000, 16:25:01.335, 1561037101335
82, 6597.99, 8760.56, 18722.40, 21600.81, 9068.28, 13121.57, 4504.64, 7084.59, 0.000, 0.000, 0.000, 16:25:01.335, 1561037101335
83, 6607.24, 8761.50, 18728.01, 21600.70, 9074.03, 13127.07, 4505.84, 7091.27, 0.000, 0.000, 0.000, 16:25:01.335, 1561037101335
84, 6624.30, 8758.26, 18742.81, 21594.53, 9094.88, 13137.68, 4506.36, 7100.28, 0.000, 0.000, 0.000, 16:25:01.335, 1561037101335
85, 6630.09, 8755.71, 18750.27, 21589.42, 9104.78, 13138.56, 4504.39, 7098.60, 0.000, 0.000, 0.000, 16:25:01.335, 1561037101335
86, 6609.84, 8746.15, 18728.82, 21583.85, 9079.05, 13122.84, 4494.60, 7083.56, 0.016, 0.052, -1.032, 16:25:01.335, 1561037101335
87, 6594.08, 8745.19, 18708.92, 21590.76, 9051.65, 13110.66, 4496.86, 7075.29, 0.000, 0.000, 0.000, 16:25:01.335, 1561037101335
88, 6608.20, 8757.57, 18722.00, 21596.28, 9060.91, 13118.60, 4507.43, 7085.55, 0.000, 0.000, 0.000, 16:25:01.335, 1561037101335
89, 6619.60, 8754.93, 18733.85, 21590.58, 9082.27, 13128.32, 4498.38, 7088.92, 0.000, 0.000, 0.000, 16:25:01.335, 1561037101335
90, 6631.58, 8762.26, 18739.70, 21596.08, 9099.01, 13139.72, 4497.17, 7092.52, 0.000, 0.000, 0.000, 16:25:01.395, 1561037101395
91, 6620.77, 8763.18, 18723.29, 21597.28, 9083.28, 13131.92, 4493.68, 7082.91, 0.000, 0.000, 0.000, 16:25:01.395, 1561037101395
92, 6605.30, 8763.92, 18711.29, 21599.12, 9055.99, 13117.34, 4492.01, 7073.54, 0.000, 0.000, 0.000, 16:25:01.395, 1561037101395
93, 6612.63, 8762.58, 18715.21, 21599.07, 9059.23, 13121.66, 4495.52, 7077.14, 0.000, 0.000, 0.000, 16:25:01.396, 1561037101396
94, 6633.22, 8765.19, 18729.11, 21597.30, 9092.56, 13139.00, 4498.04, 7091.78, 0.000, 0.000, 0.000, 16:25:01.396, 1561037101396
95, 6640.57, 8767.47, 18734.43, 21594.09, 9106.79, 13141.98, 4493.55, 7092.01, 0.000, 0.000, 0.000, 16:25:01.396, 1561037101396
96, 6619.63, 8761.95, 18718.69, 21593.88, 9086.14, 13128.72, 4488.54, 7078.62, 0.018, 0.046, -1.028, 16:25:01.396, 1561037101396
97, 6600.98, 8760.34, 18709.71, 21598.06, 9060.79, 13117.68, 4488.10, 7070.73, 0.000, 0.000, 0.000, 16:25:01.396, 1561037101396
98, 6607.04, 8757.64, 18717.26, 21594.71, 9067.05, 13122.62, 4488.57, 7074.53, 0.000, 0.000, 0.000, 16:25:01.396, 1561037101396
99, 6630.96, 8770.49, 18730.63, 21595.21, 9096.11, 13141.51, 4495.47, 7090.55, 0.000, 0.000, 0.000, 16:25:01.396, 1561037101396
100, 6639.41, 8770.94, 18728.50, 21596.70, 9110.73, 13149.71, 4500.81, 7095.58, 0.000, 0.000, 0.000, 16:25:01.396, 1561037101396
101, 6622.46, 8765.75, 18720.81, 21597.84, 9093.45, 13137.48, 4503.59, 7088.01, 0.000, 0.000, 0.000, 16:25:01.396, 1561037101396
102, 6604.54, 8765.59, 18711.27, 21597.91, 9065.33, 13123.29, 4500.61, 7078.46, 0.000, 0.000, 0.000, 16:25:01.396, 1561037101396
103, 6611.67, 8761.75, 18712.57, 21596.17, 9066.07, 13126.91, 4501.98, 7080.99, 0.000, 0.000, 0.000, 16:25:01.396, 1561037101396
104, 6629.53, 8765.79, 18728.75, 21594.38, 9097.94, 13146.27, 4505.60, 7095.65, 0.000, 0.000, 0.000, 16:25:01.396, 1561037101396
105, 6632.86, 8766.13, 18724.88, 21589.53, 9107.73, 13145.11, 4495.52, 7089.84, 0.000, 0.000, 0.000, 16:25:01.454, 1561037101454
106, 6627.02, 8771.76, 18724.39, 21598.06, 9095.48, 13138.13, 4497.77, 7081.64, 0.018, 0.050, -1.030, 16:25:01.454, 1561037101454
107, 6606.19, 8768.08, 18715.41, 21600.63, 9070.23, 13123.65, 4495.79, 7075.18, 0.000, 0.000, 0.000, 16:25:01.455, 1561037101455
108, 6615.49, 8773.80, 18730.20, 21603.45, 9077.83, 13133.57, 4499.38, 7085.93, 0.000, 0.000, 0.000, 16:25:01.455, 1561037101455
109, 6633.62, 8777.40, 18743.88, 21600.86, 9106.68, 13152.53, 4505.35, 7104.37, 0.000, 0.000, 0.000, 16:25:01.455, 1561037101455
110, 6633.98, 8772.30, 18734.20, 21594.49, 9114.91, 13153.35, 4501.53, 7099.94, 0.000, 0.000, 0.000, 16:25:01.455, 1561037101455
111, 6624.34, 8774.09, 18724.68, 21599.83, 9103.19, 13144.08, 4502.18, 7092.77, 0.000, 0.000, 0.000, 16:25:01.455, 1561037101455
112, 6607.18, 8775.58, 18720.14, 21604.10, 9077.18, 13131.92, 4502.49, 7084.07, 0.000, 0.000, 0.000, 16:25:01.455, 1561037101455
113, 6606.91, 8769.91, 18717.66, 21598.13, 9076.28, 13134.76, 4502.62, 7085.97, 0.000, 0.000, 0.000, 16:25:01.455, 1561037101455
114, 6625.44, 8773.37, 18728.93, 21594.82, 9103.11, 13150.96, 4504.50, 7098.53, 0.000, 0.000, 0.000, 16:25:01.455, 1561037101455
115, 6633.24, 8775.96, 18735.59, 21595.74, 9121.01, 13158.78, 4505.69, 7104.48, 0.000, 0.000, 0.000, 16:25:01.455, 1561037101455
116, 6619.31, 8772.57, 18718.11, 21599.14, 9101.47, 13147.47, 4506.96, 7093.75, 0.014, 0.052, -1.030, 16:25:01.455, 1561037101455
117, 6605.03, 8772.23, 18706.15, 21599.67, 9076.24, 13132.28, 4507.74, 7083.02, 0.000, 0.000, 0.000, 16:25:01.455, 1561037101455
118, 6609.77, 8774.42, 18714.91, 21598.74, 9078.67, 13138.13, 4508.55, 7088.99, 0.000, 0.000, 0.000, 16:25:01.455, 1561037101455
119, 6621.12, 8771.56, 18717.71, 21591.31, 9098.93, 13148.14, 4503.32, 7095.81, 0.000, 0.000, 0.000, 16:25:01.455, 1561037101455
120, 6639.21, 8780.97, 18726.13, 21597.89, 9121.81, 13160.51, 4510.11, 7108.59, 0.000, 0.000, 0.000, 16:25:01.515, 1561037101515
121, 6626.29, 8779.56, 18725.04, 21598.85, 9104.87, 13149.22, 4510.31, 7100.46, 0.000, 0.000, 0.000, 16:25:01.515, 1561037101515
122, 6605.92, 8774.02, 18710.71, 21597.93, 9070.05, 13129.55, 4508.79, 7088.12, 0.000, 0.000, 0.000, 16:25:01.515, 1561037101515
123, 6609.03, 8770.82, 18712.07, 21597.93, 9065.84, 13130.31, 4508.73, 7090.22, 0.000, 0.000, 0.000, 16:25:01.515, 1561037101515
124, 6625.59, 8773.31, 18735.77, 21597.15, 9097.79, 13148.26, 4511.59, 7105.33, 0.000, 0.000, 0.000, 16:25:01.515, 1561037101515
125, 6628.10, 8773.48, 18735.77, 21591.99, 9111.42, 13153.91, 4508.37, 7110.31, 0.000, 0.000, 0.000, 16:25:01.515, 1561037101515
126, 6609.41, 8761.86, 18713.24, 21585.73, 9091.86, 13137.89, 4503.43, 7094.44, 0.012, 0.056, -1.028, 16:25:01.515, 1561037101515
127, 6595.69, 8757.70, 18698.96, 21587.94, 9064.17, 13121.84, 4500.34, 7081.50, 0.000, 0.000, 0.000, 16:25:01.515, 1561037101515
128, 6603.69, 8758.04, 18708.66, 21588.79, 9068.75, 13126.67, 4502.54, 7090.38, 0.000, 0.000, 0.000, 16:25:01.516, 1561037101516
129, 6619.11, 8755.83, 18719.88, 21586.96, 9092.78, 13137.10, 4501.95, 7096.14, 0.000, 0.000, 0.000, 16:25:01.516, 1561037101516
130, 6627.36, 8756.38, 18727.77, 21586.78, 9108.60, 13142.89, 4501.19, 7099.11, 0.000, 0.000, 0.000, 16:25:01.516, 1561037101516
131, 6617.81, 8760.50, 18728.55, 21590.31, 9094.72, 13134.69, 4503.72, 7092.21, 0.000, 0.000, 0.000, 16:25:01.516, 1561037101516
132, 6596.42, 8756.65, 18718.56, 21590.24, 9066.40, 13118.44, 4501.02, 7082.13, 0.000, 0.000, 0.000, 16:25:01.516, 1561037101516
133, 6600.74, 8757.17, 18728.15, 21589.82, 9064.66, 13120.18, 4499.56, 7086.44, 0.000, 0.000, 0.000, 16:25:01.516, 1561037101516
134, 6623.58, 8766.02, 18747.03, 21590.24, 9090.77, 13137.06, 4501.95, 7099.88, 0.000, 0.000, 0.000, 16:25:01.516, 1561037101516
135, 6629.93, 8769.17, 18746.43, 21591.52, 9108.98, 13145.08, 4497.91, 7105.75, 0.000, 0.000, 0.000, 16:25:01.576, 1561037101576
136, 6613.30, 8765.79, 18728.12, 21592.43, 9090.23, 13130.11, 4493.21, 7095.36, 0.010, 0.044, -1.028, 16:25:01.577, 1561037101577
137, 6588.27, 8755.38, 18704.63, 21583.83, 9054.45, 13107.91, 4482.11, 7075.51, 0.000, 0.000, 0.000, 16:25:01.578, 1561037101578
138, 6598.84, 8761.35, 18712.54, 21590.96, 9059.79, 13120.14, 4490.31, 7087.92, 0.000, 0.000, 0.000, 16:25:01.579, 1561037101579
139, 6624.48, 8771.81, 18733.76, 21595.70, 9090.81, 13142.22, 4500.39, 7106.20, 0.000, 0.000, 0.000, 16:25:01.579, 1561037101579
140, 6630.60, 8772.17, 18740.84, 21589.50, 9105.65, 13145.87, 4498.47, 7107.03, 0.000, 0.000, 0.000, 16:25:01.579, 1561037101579
